phi[deg] B[T]
0.00 1.19541
0.50 1.19426
1.00 1.19319
1.50 1.19216
2.00 1.19048
2.50 1.18890
3.00 1.18742
3.50 1.18665
4.00 1.18604
4.50 1.18520
5.00 1.18445
5.50 1.18443
6.00 1.18504
6.50 1.18603
7.00 1.18792
7.50 1.18992
8.00 1.19173
8.50 1.19360
9.00 1.19568
9.50 1.19952
10.00 1.20288
10.50 1.20579
11.00 1.20702
11.50 1.20825
12.00 1.20897
12.50 1.20703
13.00 1.20517
13.50 1.20375
14.00 1.20248
14.50 1.20028
15.00 1.19721
15.50 1.19444
16.00 1.19283
16.50 1.19132
17.00 1.19038
17.50 1.18974
18.00 1.18897
18.50 1.18797
19.00 1.18705
19.50 1.18836
20.00 1.19010
20.50 1.18931
21.00 1.18711
21.50 1.18496
22.00 1.18314
22.50 1.18541
23.00 1.17868
23.50 1.17240
24.00 1.16621
24.50 1.16002
25.00 1.14826
25.50 1.13473
26.00 1.12354
26.50 1.11272
27.00 1.10136
27.50 1.08850
28.00 1.07596
28.50 1.06527
29.00 1.05466
29.50 1.04413
30.00 1.03428
30.50 1.02614
31.00 1.01748
31.50 1.00760
32.00 0.99778
32.50 0.98868
33.00 0.98123
33.50 0.97284
34.00 0.96073
34.50 0.94864
35.00 0.93620
35.50 0.92339
36.00 0.90903
36.50 0.89308
37.00 0.87714
37.50 0.86035
38.00 0.84209
38.50 0.82509
39.00 0.80948
39.50 0.79408
40.00 0.77874
40.50 0.76415
41.00 0.75096
41.50 0.73789
42.00 0.72491
42.50 0.71305
43.00 0.70108
43.50 0.69007
44.00 0.67873
44.50 0.66698
45.00 0.65616
45.50 0.64481
46.00 0.63270
46.50 0.62029
47.00 0.60798
47.50 0.59453
48.00 0.58092
48.50 0.56655
49.00 0.55151
49.50 0.53662
50.00 0.52209
50.50 0.50758
51.00 0.49185
51.50 0.47609
52.00 0.46099
52.50 0.44775
53.00 0.43431
53.50 0.41821
54.00 0.40203
54.50 0.38687
55.00 0.37374
55.50 0.35839
56.00 0.33971
56.50 0.32092
57.00 0.30323
57.50 0.28580
58.00 0.26675
58.50 0.24603
59.00 0.22480
59.50 0.19996
60.00 0.17502
60.50 0.15580
61.00 0.13816
61.50 0.12014
62.00 0.09943
62.50 0.08254
63.00 0.06926
63.50 0.05954
64.00 0.04996
64.50 0.04097
65.00 0.03486
65.50 0.02873
66.00 0.02372
66.50 0.01952
67.00 0.01684
67.50 0.01416
68.00 0.01148
68.50 0.00966
69.00 0.00830
69.50 0.00693
70.00 0.00556
70.50 0.00484
71.00 0.00413
71.50 0.00340
72.00 0.00283
72.50 0.00246
73.00 0.00209
73.50 0.00173
74.00 0.00155
74.50 0.00137
75.00 0.00119
75.50 0.00103
76.00 0.00094
76.50 0.00087
77.00 0.00080
77.50 0.00074
78.00 0.00069
78.50 0.00064
79.00 0.00060
79.50 0.00057
80.00 0.00054
80.50 0.00051
81.00 0.00048
81.50 0.00045
82.00 0.00043
82.50 0.00040
83.00 0.00037
83.50 0.00035
84.00 0.00032
84.50 0.00030
85.00 0.00027
85.50 0.00025
86.00 0.00022
86.50 0.00020
87.00 0.00018
87.50 0.00015
88.00 0.00013
88.50 0.00011
89.00 0.00009
89.50 0.00008
90.00 0.00007
90.00 0.00007
90.50 0.00008
91.00 0.00009
91.50 0.00011
92.00 0.00013
92.50 0.00015
93.00 0.00018
93.50 0.00020
94.00 0.00022
94.50 0.00025
95.00 0.00027
95.50 0.00030
96.00 0.00032
96.50 0.00035
97.00 0.00037
97.50 0.00040
98.00 0.00043
98.50 0.00045
99.00 0.00048
99.50 0.00051
100.00 0.00054
100.50 0.00057
101.00 0.00060
101.50 0.00064
102.00 0.00069
102.50 0.00074
103.00 0.00080
103.50 0.00087
104.00 0.00094
104.50 0.00103
105.00 0.00119
105.50 0.00137
106.00 0.00155
106.50 0.00173
107.00 0.00209
107.50 0.00246
108.00 0.00283
108.50 0.00340
109.00 0.00413
109.50 0.00484
110.00 0.00556
110.50 0.00693
111.00 0.00830
111.50 0.00966
112.00 0.01148
112.50 0.01416
113.00 0.01684
113.50 0.01952
114.00 0.02372
114.50 0.02873
115.00 0.03486
115.50 0.04097
116.00 0.04996
116.50 0.05954
117.00 0.06926
117.50 0.08254
118.00 0.09943
118.50 0.12014
119.00 0.13816
119.50 0.15580
120.00 0.17502
120.50 0.19996
121.00 0.22480
121.50 0.24603
122.00 0.26675
122.50 0.28580
123.00 0.30323
123.50 0.32092
124.00 0.33971
124.50 0.35839
125.00 0.37374
125.50 0.38687
126.00 0.40203
126.50 0.41821
127.00 0.43431
127.50 0.44775
128.00 0.46099
128.50 0.47609
129.00 0.49185
129.50 0.50758
130.00 0.52209
130.50 0.53662
131.00 0.55151
131.50 0.56655
132.00 0.58092
132.50 0.59453
133.00 0.60798
133.50 0.62029
134.00 0.63270
134.50 0.64481
135.00 0.65616
135.50 0.66698
136.00 0.67873
136.50 0.69007
137.00 0.70108
137.50 0.71305
138.00 0.72491
138.50 0.73789
139.00 0.75096
139.50 0.76415
140.00 0.77874
140.50 0.79408
141.00 0.80948
141.50 0.82509
142.00 0.84209
142.50 0.86035
143.00 0.87714
143.50 0.89308
144.00 0.90903
144.50 0.92339
145.00 0.93620
145.50 0.94864
146.00 0.96073
146.50 0.97284
147.00 0.98123
147.50 0.98868
148.00 0.99778
148.50 1.00760
149.00 1.01748
149.50 1.02614
150.00 1.03428
150.50 1.04413
151.00 1.05466
151.50 1.06527
152.00 1.07596
152.50 1.08850
153.00 1.10136
153.50 1.11272
154.00 1.12354
154.50 1.13473
155.00 1.14826
155.50 1.16002
156.00 1.16621
156.50 1.17240
157.00 1.17868
157.50 1.18541
158.00 1.18314
158.50 1.18496
159.00 1.18711
159.50 1.18931
160.00 1.19010
160.50 1.18836
161.00 1.18705
161.50 1.18797
162.00 1.18897
162.50 1.18974
163.00 1.19038
163.50 1.19132
164.00 1.19283
164.50 1.19444
165.00 1.19721
165.50 1.20028
166.00 1.20248
166.50 1.20375
167.00 1.20517
167.50 1.20703
168.00 1.20897
168.50 1.20825
169.00 1.20702
169.50 1.20579
170.00 1.20288
170.50 1.19952
171.00 1.19568
171.50 1.19360
172.00 1.19173
172.50 1.18992
173.00 1.18792
173.50 1.18603
174.00 1.18504
174.50 1.18443
175.00 1.18445
175.50 1.18520
176.00 1.18604
176.50 1.18665
177.00 1.18742
177.50 1.18890
178.00 1.19048
178.50 1.19216
179.00 1.19319
179.50 1.19426
180.00 1.19541
180.00 1.19541
180.50 1.19426
181.00 1.19319
181.50 1.19216
182.00 1.19048
182.50 1.18890
183.00 1.18742
183.50 1.18665
184.00 1.18604
184.50 1.18520
185.00 1.18445
185.50 1.18443
186.00 1.18504
186.50 1.18603
187.00 1.18792
187.50 1.18992
188.00 1.19173
188.50 1.19360
189.00 1.19568
189.50 1.19952
190.00 1.20288
190.50 1.20579
191.00 1.20702
191.50 1.20825
192.00 1.20897
192.50 1.20703
193.00 1.20517
193.50 1.20375
194.00 1.20248
194.50 1.20028
195.00 1.19721
195.50 1.19444
196.00 1.19283
196.50 1.19132
197.00 1.19038
197.50 1.18974
198.00 1.18897
198.50 1.18797
199.00 1.18705
199.50 1.18836
200.00 1.19010
200.50 1.18931
201.00 1.18711
201.50 1.18496
202.00 1.18314
202.50 1.18541
203.00 1.17868
203.50 1.17240
204.00 1.16621
204.50 1.16002
205.00 1.14826
205.50 1.13473
206.00 1.12354
206.50 1.11272
207.00 1.10136
207.50 1.08850
208.00 1.07596
208.50 1.06527
209.00 1.05466
209.50 1.04413
210.00 1.03428
210.50 1.02614
211.00 1.01748
211.50 1.00760
212.00 0.99778
212.50 0.98868
213.00 0.98123
213.50 0.97284
214.00 0.96073
214.50 0.94864
215.00 0.93620
215.50 0.92339
216.00 0.90903
216.50 0.89308
217.00 0.87714
217.50 0.86035
218.00 0.84209
218.50 0.82509
219.00 0.80948
219.50 0.79408
220.00 0.77874
220.50 0.76415
221.00 0.75096
221.50 0.73789
222.00 0.72491
222.50 0.71305
223.00 0.70108
223.50 0.69007
224.00 0.67873
224.50 0.66698
225.00 0.65616
225.50 0.64481
226.00 0.63270
226.50 0.62029
227.00 0.60798
227.50 0.59453
228.00 0.58092
228.50 0.56655
229.00 0.55151
229.50 0.53662
230.00 0.52209
230.50 0.50758
231.00 0.49185
231.50 0.47609
232.00 0.46099
232.50 0.44775
233.00 0.43431
233.50 0.41821
234.00 0.40203
234.50 0.38687
235.00 0.37374
235.50 0.35839
236.00 0.33971
236.50 0.32092
237.00 0.30323
237.50 0.28580
238.00 0.26675
238.50 0.24603
239.00 0.22480
239.50 0.19996
240.00 0.17502
240.50 0.15580
241.00 0.13816
241.50 0.12014
242.00 0.09943
242.50 0.08254
243.00 0.06926
243.50 0.05954
244.00 0.04996
244.50 0.04097
245.00 0.03486
245.50 0.02873
246.00 0.02372
246.50 0.01952
247.00 0.01684
247.50 0.01416
248.00 0.01148
248.50 0.00966
249.00 0.00830
249.50 0.00693
250.00 0.00556
250.50 0.00484
251.00 0.00413
251.50 0.00340
252.00 0.00283
252.50 0.00246
253.00 0.00209
253.50 0.00173
254.00 0.00155
254.50 0.00137
255.00 0.00119
255.50 0.00103
256.00 0.00094
256.50 0.00087
257.00 0.00080
257.50 0.00074
258.00 0.00069
258.50 0.00064
259.00 0.00060
259.50 0.00057
260.00 0.00054
260.50 0.00051
261.00 0.00048
261.50 0.00045
262.00 0.00043
262.50 0.00040
263.00 0.00037
263.50 0.00035
264.00 0.00032
264.50 0.00030
265.00 0.00027
265.50 0.00025
266.00 0.00022
266.50 0.00020
267.00 0.00018
267.50 0.00015
268.00 0.00013
268.50 0.00011
269.00 0.00009
269.50 0.00008
270.00 0.00007
270.00 0.00007
270.50 0.00008
271.00 0.00009
271.50 0.00011
272.00 0.00013
272.50 0.00015
273.00 0.00018
273.50 0.00020
274.00 0.00022
274.50 0.00025
275.00 0.00027
275.50 0.00030
276.00 0.00032
276.50 0.00035
277.00 0.00037
277.50 0.00040
278.00 0.00043
278.50 0.00045
279.00 0.00048
279.50 0.00051
280.00 0.00054
280.50 0.00057
281.00 0.00060
281.50 0.00064
282.00 0.00069
282.50 0.00074
283.00 0.00080
283.50 0.00087
284.00 0.00094
284.50 0.00103
285.00 0.00119
285.50 0.00137
286.00 0.00155
286.50 0.00173
287.00 0.00209
287.50 0.00246
288.00 0.00283
288.50 0.00340
289.00 0.00413
289.50 0.00484
290.00 0.00556
290.50 0.00693
291.00 0.00830
291.50 0.00966
292.00 0.01148
292.50 0.01416
293.00 0.01684
293.50 0.01952
294.00 0.02372
294.50 0.02873
295.00 0.03486
295.50 0.04097
296.00 0.04996
296.50 0.05954
297.00 0.06926
297.50 0.08254
298.00 0.09943
298.50 0.12014
299.00 0.13816
299.50 0.15580
300.00 0.17502
300.50 0.19996
301.00 0.22480
301.50 0.24603
302.00 0.26675
302.50 0.28580
303.00 0.30323
303.50 0.32092
304.00 0.33971
304.50 0.35839
305.00 0.37374
305.50 0.38687
306.00 0.40203
306.50 0.41821
307.00 0.43431
307.50 0.44775
308.00 0.46099
308.50 0.47609
309.00 0.49185
309.50 0.50758
310.00 0.52209
310.50 0.53662
311.00 0.55151
311.50 0.56655
312.00 0.58092
312.50 0.59453
313.00 0.60798
313.50 0.62029
314.00 0.63270
314.50 0.64481
315.00 0.65616
315.50 0.66698
316.00 0.67873
316.50 0.69007
317.00 0.70108
317.50 0.71305
318.00 0.72491
318.50 0.73789
319.00 0.75096
319.50 0.76415
320.00 0.77874
320.50 0.79408
321.00 0.80948
321.50 0.82509
322.00 0.84209
322.50 0.86035
323.00 0.87714
323.50 0.89308
324.00 0.90903
324.50 0.92339
325.00 0.93620
325.50 0.94864
326.00 0.96073
326.50 0.97284
327.00 0.98123
327.50 0.98868
328.00 0.99778
328.50 1.00760
329.00 1.01748
329.50 1.02614
330.00 1.03428
330.50 1.04413
331.00 1.05466
331.50 1.06527
332.00 1.07596
332.50 1.08850
333.00 1.10136
333.50 1.11272
334.00 1.12354
334.50 1.13473
335.00 1.14826
335.50 1.16002
336.00 1.16621
336.50 1.17240
337.00 1.17868
337.50 1.18541
338.00 1.18314
338.50 1.18496
339.00 1.18711
339.50 1.18931
340.00 1.19010
340.50 1.18836
341.00 1.18705
341.50 1.18797
342.00 1.18897
342.50 1.18974
343.00 1.19038
343.50 1.19132
344.00 1.19283
344.50 1.19444
345.00 1.19721
345.50 1.20028
346.00 1.20248
346.50 1.20375
347.00 1.20517
347.50 1.20703
348.00 1.20897
348.50 1.20825
349.00 1.20702
349.50 1.20579
350.00 1.20288
350.50 1.19952
351.00 1.19568
351.50 1.19360
352.00 1.19173
352.50 1.18992
353.00 1.18792
353.50 1.18603
354.00 1.18504
354.50 1.18443
355.00 1.18445
355.50 1.18520
356.00 1.18604
356.50 1.18665
357.00 1.18742
357.50 1.18890
358.00 1.19048
358.50 1.19216
359.00 1.19319
359.50 1.19426
360.00 1.19541
