phi[deg] B[T]
0.00 2.03094
0.50 2.03011
1.00 2.02941
1.50 2.02885
2.00 2.02843
2.50 2.02836
3.00 2.02751
3.50 2.02717
4.00 2.02695
4.50 2.02687
5.00 2.02692
5.50 2.02710
6.00 2.02675
6.50 2.02651
7.00 2.02641
7.50 2.02549
8.00 2.02460
8.50 2.02395
9.00 2.02358
9.50 2.02333
10.00 2.02321
10.50 2.02105
11.00 2.01828
11.50 2.01614
12.00 2.01441
12.50 2.01279
13.00 2.01128
13.50 2.00967
14.00 2.00688
14.50 2.00334
15.00 1.99758
15.50 1.99252
16.00 1.98925
16.50 1.98606
17.00 1.98294
17.50 1.97885
18.00 1.97160
18.50 1.96440
19.00 1.95755
19.50 1.95311
20.00 1.94871
20.50 1.94272
21.00 1.93425
21.50 1.92583
22.00 1.91620
22.50 1.90507
23.00 1.89396
23.50 1.88288
24.00 1.86915
24.50 1.85483
25.00 1.84055
25.50 1.82614
26.00 1.80894
26.50 1.79242
27.00 1.77614
27.50 1.75988
28.00 1.74257
28.50 1.72394
29.00 1.70522
29.50 1.68582
30.00 1.66643
30.50 1.64707
31.00 1.62559
31.50 1.60298
32.00 1.58300
32.50 1.56300
33.00 1.54300
33.50 1.52153
34.00 1.49815
34.50 1.47474
35.00 1.45075
35.50 1.42611
36.00 1.40147
36.50 1.37682
37.00 1.35163
37.50 1.32521
38.00 1.29982
38.50 1.27441
39.00 1.24899
39.50 1.22315
40.00 1.19664
40.50 1.17148
41.00 1.14631
41.50 1.12107
42.00 1.09456
42.50 1.06931
43.00 1.04489
43.50 1.02025
44.00 0.99509
44.50 0.96989
45.00 0.94459
45.50 0.91968
46.00 0.89540
46.50 0.87106
47.00 0.84685
47.50 0.82274
48.00 0.79796
48.50 0.77266
49.00 0.74875
49.50 0.72500
50.00 0.70117
50.50 0.67715
51.00 0.65459
51.50 0.63197
52.00 0.60929
52.50 0.58652
53.00 0.56269
53.50 0.54043
54.00 0.51886
54.50 0.49722
55.00 0.47552
55.50 0.45375
56.00 0.43180
56.50 0.41199
57.00 0.39210
57.50 0.37215
58.00 0.35224
58.50 0.33375
59.00 0.31520
59.50 0.29619
60.00 0.27714
60.50 0.25803
61.00 0.23889
61.50 0.22009
62.00 0.20645
62.50 0.19298
63.00 0.17948
63.50 0.16594
64.00 0.15237
64.50 0.13850
65.00 0.12935
65.50 0.12036
66.00 0.11137
66.50 0.10233
67.00 0.09318
67.50 0.08402
68.00 0.07672
68.50 0.07173
69.00 0.06672
69.50 0.06172
70.00 0.05662
70.50 0.05152
71.00 0.04642
71.50 0.04162
72.00 0.03866
72.50 0.03588
73.00 0.03311
73.50 0.03034
74.00 0.02757
74.50 0.02480
75.00 0.02283
75.50 0.02130
76.00 0.01977
76.50 0.01824
77.00 0.01671
77.50 0.01513
78.00 0.01355
78.50 0.01252
79.00 0.01170
79.50 0.01089
80.00 0.01007
80.50 0.00925
81.00 0.00843
81.50 0.00764
82.00 0.00707
82.50 0.00660
83.00 0.00615
83.50 0.00571
84.00 0.00527
84.50 0.00487
85.00 0.00464
85.50 0.00440
86.00 0.00417
86.50 0.00393
87.00 0.00368
87.50 0.00359
88.00 0.00350
88.50 0.00340
89.00 0.00330
89.50 0.00320
90.00 0.00311
90.00 0.00311
90.50 0.00320
91.00 0.00330
91.50 0.00340
92.00 0.00350
92.50 0.00359
93.00 0.00368
93.50 0.00393
94.00 0.00417
94.50 0.00440
95.00 0.00464
95.50 0.00487
96.00 0.00527
96.50 0.00571
97.00 0.00615
97.50 0.00660
98.00 0.00707
98.50 0.00764
99.00 0.00843
99.50 0.00925
100.00 0.01007
100.50 0.01089
101.00 0.01170
101.50 0.01252
102.00 0.01355
102.50 0.01513
103.00 0.01671
103.50 0.01824
104.00 0.01977
104.50 0.02130
105.00 0.02283
105.50 0.02480
106.00 0.02757
106.50 0.03034
107.00 0.03311
107.50 0.03588
108.00 0.03866
108.50 0.04162
109.00 0.04642
109.50 0.05152
110.00 0.05662
110.50 0.06172
111.00 0.06672
111.50 0.07173
112.00 0.07672
112.50 0.08402
113.00 0.09318
113.50 0.10233
114.00 0.11137
114.50 0.12036
115.00 0.12935
115.50 0.13850
116.00 0.15237
116.50 0.16594
117.00 0.17948
117.50 0.19298
118.00 0.20645
118.50 0.22009
119.00 0.23889
119.50 0.25803
120.00 0.27714
120.50 0.29619
121.00 0.31520
121.50 0.33375
122.00 0.35224
122.50 0.37215
123.00 0.39210
123.50 0.41199
124.00 0.43180
124.50 0.45375
125.00 0.47552
125.50 0.49722
126.00 0.51886
126.50 0.54043
127.00 0.56269
127.50 0.58652
128.00 0.60929
128.50 0.63197
129.00 0.65459
129.50 0.67715
130.00 0.70117
130.50 0.72500
131.00 0.74875
131.50 0.77266
132.00 0.79796
132.50 0.82274
133.00 0.84685
133.50 0.87106
134.00 0.89540
134.50 0.91968
135.00 0.94459
135.50 0.96989
136.00 0.99509
136.50 1.02025
137.00 1.04489
137.50 1.06931
138.00 1.09456
138.50 1.12107
139.00 1.14631
139.50 1.17148
140.00 1.19664
140.50 1.22315
141.00 1.24899
141.50 1.27441
142.00 1.29982
142.50 1.32521
143.00 1.35163
143.50 1.37682
144.00 1.40147
144.50 1.42611
145.00 1.45075
145.50 1.47474
146.00 1.49815
146.50 1.52153
147.00 1.54300
147.50 1.56300
148.00 1.58300
148.50 1.60298
149.00 1.62559
149.50 1.64707
150.00 1.66643
150.50 1.68582
151.00 1.70522
151.50 1.72394
152.00 1.74257
152.50 1.75988
153.00 1.77614
153.50 1.79242
154.00 1.80894
154.50 1.82614
155.00 1.84055
155.50 1.85483
156.00 1.86915
156.50 1.88288
157.00 1.89396
157.50 1.90507
158.00 1.91620
158.50 1.92583
159.00 1.93425
159.50 1.94272
160.00 1.94871
160.50 1.95311
161.00 1.95755
161.50 1.96440
162.00 1.97160
162.50 1.97885
163.00 1.98294
163.50 1.98606
164.00 1.98925
164.50 1.99252
165.00 1.99758
165.50 2.00334
166.00 2.00688
166.50 2.00967
167.00 2.01128
167.50 2.01279
168.00 2.01441
168.50 2.01614
169.00 2.01828
169.50 2.02105
170.00 2.02321
170.50 2.02333
171.00 2.02358
171.50 2.02395
172.00 2.02460
172.50 2.02549
173.00 2.02641
173.50 2.02651
174.00 2.02675
174.50 2.02710
175.00 2.02692
175.50 2.02687
176.00 2.02695
176.50 2.02717
177.00 2.02751
177.50 2.02836
178.00 2.02843
178.50 2.02885
179.00 2.02941
179.50 2.03011
180.00 2.03094
180.00 2.03094
180.50 2.03011
181.00 2.02941
181.50 2.02885
182.00 2.02843
182.50 2.02836
183.00 2.02751
183.50 2.02717
184.00 2.02695
184.50 2.02687
185.00 2.02692
185.50 2.02710
186.00 2.02675
186.50 2.02651
187.00 2.02641
187.50 2.02549
188.00 2.02460
188.50 2.02395
189.00 2.02358
189.50 2.02333
190.00 2.02321
190.50 2.02105
191.00 2.01828
191.50 2.01614
192.00 2.01441
192.50 2.01279
193.00 2.01128
193.50 2.00967
194.00 2.00688
194.50 2.00334
195.00 1.99758
195.50 1.99252
196.00 1.98925
196.50 1.98606
197.00 1.98294
197.50 1.97885
198.00 1.97160
198.50 1.96440
199.00 1.95755
199.50 1.95311
200.00 1.94871
200.50 1.94272
201.00 1.93425
201.50 1.92583
202.00 1.91620
202.50 1.90507
203.00 1.89396
203.50 1.88288
204.00 1.86915
204.50 1.85483
205.00 1.84055
205.50 1.82614
206.00 1.80894
206.50 1.79242
207.00 1.77614
207.50 1.75988
208.00 1.74257
208.50 1.72394
209.00 1.70522
209.50 1.68582
210.00 1.66643
210.50 1.64707
211.00 1.62559
211.50 1.60298
212.00 1.58300
212.50 1.56300
213.00 1.54300
213.50 1.52153
214.00 1.49815
214.50 1.47474
215.00 1.45075
215.50 1.42611
216.00 1.40147
216.50 1.37682
217.00 1.35163
217.50 1.32521
218.00 1.29982
218.50 1.27441
219.00 1.24899
219.50 1.22315
220.00 1.19664
220.50 1.17148
221.00 1.14631
221.50 1.12107
222.00 1.09456
222.50 1.06931
223.00 1.04489
223.50 1.02025
224.00 0.99509
224.50 0.96989
225.00 0.94459
225.50 0.91968
226.00 0.89540
226.50 0.87106
227.00 0.84685
227.50 0.82274
228.00 0.79796
228.50 0.77266
229.00 0.74875
229.50 0.72500
230.00 0.70117
230.50 0.67715
231.00 0.65459
231.50 0.63197
232.00 0.60929
232.50 0.58652
233.00 0.56269
233.50 0.54043
234.00 0.51886
234.50 0.49722
235.00 0.47552
235.50 0.45375
236.00 0.43180
236.50 0.41199
237.00 0.39210
237.50 0.37215
238.00 0.35224
238.50 0.33375
239.00 0.31520
239.50 0.29619
240.00 0.27714
240.50 0.25803
241.00 0.23889
241.50 0.22009
242.00 0.20645
242.50 0.19298
243.00 0.17948
243.50 0.16594
244.00 0.15237
244.50 0.13850
245.00 0.12935
245.50 0.12036
246.00 0.11137
246.50 0.10233
247.00 0.09318
247.50 0.08402
248.00 0.07672
248.50 0.07173
249.00 0.06672
249.50 0.06172
250.00 0.05662
250.50 0.05152
251.00 0.04642
251.50 0.04162
252.00 0.03866
252.50 0.03588
253.00 0.03311
253.50 0.03034
254.00 0.02757
254.50 0.02480
255.00 0.02283
255.50 0.02130
256.00 0.01977
256.50 0.01824
257.00 0.01671
257.50 0.01513
258.00 0.01355
258.50 0.01252
259.00 0.01170
259.50 0.01089
260.00 0.01007
260.50 0.00925
261.00 0.00843
261.50 0.00764
262.00 0.00707
262.50 0.00660
263.00 0.00615
263.50 0.00571
264.00 0.00527
264.50 0.00487
265.00 0.00464
265.50 0.00440
266.00 0.00417
266.50 0.00393
267.00 0.00368
267.50 0.00359
268.00 0.00350
268.50 0.00340
269.00 0.00330
269.50 0.00320
270.00 0.00311
270.00 0.00311
270.50 0.00320
271.00 0.00330
271.50 0.00340
272.00 0.00350
272.50 0.00359
273.00 0.00368
273.50 0.00393
274.00 0.00417
274.50 0.00440
275.00 0.00464
275.50 0.00487
276.00 0.00527
276.50 0.00571
277.00 0.00615
277.50 0.00660
278.00 0.00707
278.50 0.00764
279.00 0.00843
279.50 0.00925
280.00 0.01007
280.50 0.01089
281.00 0.01170
281.50 0.01252
282.00 0.01355
282.50 0.01513
283.00 0.01671
283.50 0.01824
284.00 0.01977
284.50 0.02130
285.00 0.02283
285.50 0.02480
286.00 0.02757
286.50 0.03034
287.00 0.03311
287.50 0.03588
288.00 0.03866
288.50 0.04162
289.00 0.04642
289.50 0.05152
290.00 0.05662
290.50 0.06172
291.00 0.06672
291.50 0.07173
292.00 0.07672
292.50 0.08402
293.00 0.09318
293.50 0.10233
294.00 0.11137
294.50 0.12036
295.00 0.12935
295.50 0.13850
296.00 0.15237
296.50 0.16594
297.00 0.17948
297.50 0.19298
298.00 0.20645
298.50 0.22009
299.00 0.23889
299.50 0.25803
300.00 0.27714
300.50 0.29619
301.00 0.31520
301.50 0.33375
302.00 0.35224
302.50 0.37215
303.00 0.39210
303.50 0.41199
304.00 0.43180
304.50 0.45375
305.00 0.47552
305.50 0.49722
306.00 0.51886
306.50 0.54043
307.00 0.56269
307.50 0.58652
308.00 0.60929
308.50 0.63197
309.00 0.65459
309.50 0.67715
310.00 0.70117
310.50 0.72500
311.00 0.74875
311.50 0.77266
312.00 0.79796
312.50 0.82274
313.00 0.84685
313.50 0.87106
314.00 0.89540
314.50 0.91968
315.00 0.94459
315.50 0.96989
316.00 0.99509
316.50 1.02025
317.00 1.04489
317.50 1.06931
318.00 1.09456
318.50 1.12107
319.00 1.14631
319.50 1.17148
320.00 1.19664
320.50 1.22315
321.00 1.24899
321.50 1.27441
322.00 1.29982
322.50 1.32521
323.00 1.35163
323.50 1.37682
324.00 1.40147
324.50 1.42611
325.00 1.45075
325.50 1.47474
326.00 1.49815
326.50 1.52153
327.00 1.54300
327.50 1.56300
328.00 1.58300
328.50 1.60298
329.00 1.62559
329.50 1.64707
330.00 1.66643
330.50 1.68582
331.00 1.70522
331.50 1.72394
332.00 1.74257
332.50 1.75988
333.00 1.77614
333.50 1.79242
334.00 1.80894
334.50 1.82614
335.00 1.84055
335.50 1.85483
336.00 1.86915
336.50 1.88288
337.00 1.89396
337.50 1.90507
338.00 1.91620
338.50 1.92583
339.00 1.93425
339.50 1.94272
340.00 1.94871
340.50 1.95311
341.00 1.95755
341.50 1.96440
342.00 1.97160
342.50 1.97885
343.00 1.98294
343.50 1.98606
344.00 1.98925
344.50 1.99252
345.00 1.99758
345.50 2.00334
346.00 2.00688
346.50 2.00967
347.00 2.01128
347.50 2.01279
348.00 2.01441
348.50 2.01614
349.00 2.01828
349.50 2.02105
350.00 2.02321
350.50 2.02333
351.00 2.02358
351.50 2.02395
352.00 2.02460
352.50 2.02549
353.00 2.02641
353.50 2.02651
354.00 2.02675
354.50 2.02710
355.00 2.02692
355.50 2.02687
356.00 2.02695
356.50 2.02717
357.00 2.02751
357.50 2.02836
358.00 2.02843
358.50 2.02885
359.00 2.02941
359.50 2.03011
360.00 2.03094
