phi[deg] B[T]
0.00 1.73073
0.50 1.73031
1.00 1.73002
1.50 1.72987
2.00 1.72985
2.50 1.72993
3.00 1.73014
3.50 1.73049
4.00 1.73097
4.50 1.73150
5.00 1.73215
5.50 1.73315
6.00 1.73465
6.50 1.73629
7.00 1.73750
7.50 1.73847
8.00 1.73958
8.50 1.74082
9.00 1.74267
9.50 1.74577
10.00 1.74792
10.50 1.74935
11.00 1.74944
11.50 1.74964
12.00 1.74992
12.50 1.75031
13.00 1.74942
13.50 1.74808
14.00 1.74644
14.50 1.74380
15.00 1.74126
15.50 1.73882
16.00 1.73648
16.50 1.73441
17.00 1.73255
17.50 1.73098
18.00 1.72729
18.50 1.72331
19.00 1.71939
19.50 1.71555
20.00 1.71209
20.50 1.70991
21.00 1.70779
21.50 1.69952
22.00 1.69031
22.50 1.68113
23.00 1.67199
23.50 1.66352
24.00 1.65716
24.50 1.64315
25.00 1.62676
25.50 1.61181
26.00 1.59690
26.50 1.58201
27.00 1.56717
27.50 1.55091
28.00 1.53331
28.50 1.51567
29.00 1.49762
29.50 1.47962
30.00 1.46168
30.50 1.44380
31.00 1.42625
31.50 1.41013
32.00 1.39427
32.50 1.37458
33.00 1.35491
33.50 1.33525
34.00 1.31561
34.50 1.29599
35.00 1.27666
35.50 1.25803
36.00 1.23524
36.50 1.21151
37.00 1.18889
37.50 1.16634
38.00 1.14378
38.50 1.12040
39.00 1.09705
39.50 1.07394
40.00 1.05089
40.50 1.02789
41.00 1.00515
41.50 0.98345
42.00 0.96179
42.50 0.94019
43.00 0.91957
43.50 0.89925
44.00 0.87924
44.50 0.85974
45.00 0.84050
45.50 0.82257
46.00 0.80436
46.50 0.78693
47.00 0.77066
47.50 0.75441
48.00 0.73911
48.50 0.72465
49.00 0.71019
49.50 0.69338
50.00 0.67813
50.50 0.66592
51.00 0.65340
51.50 0.63767
52.00 0.62189
52.50 0.60607
53.00 0.59013
53.50 0.57089
54.00 0.55408
54.50 0.53712
55.00 0.51999
55.50 0.50271
56.00 0.48395
56.50 0.46435
57.00 0.44143
57.50 0.41832
58.00 0.39505
58.50 0.37022
59.00 0.34126
59.50 0.31216
60.00 0.28878
60.50 0.26596
61.00 0.24303
61.50 0.21999
62.00 0.19386
62.50 0.16753
63.00 0.14921
63.50 0.13242
64.00 0.11862
64.50 0.10482
65.00 0.09102
65.50 0.07938
66.00 0.07080
66.50 0.06220
67.00 0.05385
67.50 0.04734
68.00 0.04083
68.50 0.03561
69.00 0.03212
69.50 0.02863
70.00 0.02513
70.50 0.02163
71.00 0.01837
71.50 0.01635
72.00 0.01471
72.50 0.01309
73.00 0.01147
73.50 0.00985
74.00 0.00835
74.50 0.00750
75.00 0.00666
75.50 0.00581
76.00 0.00507
76.50 0.00435
77.00 0.00386
77.50 0.00348
78.00 0.00311
78.50 0.00274
79.00 0.00238
79.50 0.00201
80.00 0.00181
80.50 0.00162
81.00 0.00142
81.50 0.00126
82.00 0.00112
82.50 0.00099
83.00 0.00088
83.50 0.00078
84.00 0.00069
84.50 0.00063
85.00 0.00057
85.50 0.00051
86.00 0.00046
86.50 0.00041
87.00 0.00038
87.50 0.00036
88.00 0.00033
88.50 0.00031
89.00 0.00030
89.50 0.00029
90.00 0.00027
90.00 0.00027
90.50 0.00029
91.00 0.00030
91.50 0.00031
92.00 0.00033
92.50 0.00036
93.00 0.00038
93.50 0.00041
94.00 0.00046
94.50 0.00051
95.00 0.00057
95.50 0.00063
96.00 0.00069
96.50 0.00078
97.00 0.00088
97.50 0.00099
98.00 0.00112
98.50 0.00126
99.00 0.00142
99.50 0.00162
100.00 0.00181
100.50 0.00201
101.00 0.00238
101.50 0.00274
102.00 0.00311
102.50 0.00348
103.00 0.00386
103.50 0.00435
104.00 0.00507
104.50 0.00581
105.00 0.00666
105.50 0.00750
106.00 0.00835
106.50 0.00985
107.00 0.01147
107.50 0.01309
108.00 0.01471
108.50 0.01635
109.00 0.01837
109.50 0.02163
110.00 0.02513
110.50 0.02863
111.00 0.03212
111.50 0.03561
112.00 0.04083
112.50 0.04734
113.00 0.05385
113.50 0.06220
114.00 0.07080
114.50 0.07938
115.00 0.09102
115.50 0.10482
116.00 0.11862
116.50 0.13242
117.00 0.14921
117.50 0.16753
118.00 0.19386
118.50 0.21999
119.00 0.24303
119.50 0.26596
120.00 0.28878
120.50 0.31216
121.00 0.34126
121.50 0.37022
122.00 0.39505
122.50 0.41832
123.00 0.44143
123.50 0.46435
124.00 0.48395
124.50 0.50271
125.00 0.51999
125.50 0.53712
126.00 0.55408
126.50 0.57089
127.00 0.59013
127.50 0.60607
128.00 0.62189
128.50 0.63767
129.00 0.65340
129.50 0.66592
130.00 0.67813
130.50 0.69338
131.00 0.71019
131.50 0.72465
132.00 0.73911
132.50 0.75441
133.00 0.77066
133.50 0.78693
134.00 0.80436
134.50 0.82257
135.00 0.84050
135.50 0.85974
136.00 0.87924
136.50 0.89925
137.00 0.91957
137.50 0.94019
138.00 0.96179
138.50 0.98345
139.00 1.00515
139.50 1.02789
140.00 1.05089
140.50 1.07394
141.00 1.09705
141.50 1.12040
142.00 1.14378
142.50 1.16634
143.00 1.18889
143.50 1.21151
144.00 1.23524
144.50 1.25803
145.00 1.27666
145.50 1.29599
146.00 1.31561
146.50 1.33525
147.00 1.35491
147.50 1.37458
148.00 1.39427
148.50 1.41013
149.00 1.42625
149.50 1.44380
150.00 1.46168
150.50 1.47962
151.00 1.49762
151.50 1.51567
152.00 1.53331
152.50 1.55091
153.00 1.56717
153.50 1.58201
154.00 1.59690
154.50 1.61181
155.00 1.62676
155.50 1.64315
156.00 1.65716
156.50 1.66352
157.00 1.67199
157.50 1.68113
158.00 1.69031
158.50 1.69952
159.00 1.70779
159.50 1.70991
160.00 1.71209
160.50 1.71555
161.00 1.71939
161.50 1.72331
162.00 1.72729
162.50 1.73098
163.00 1.73255
163.50 1.73441
164.00 1.73648
164.50 1.73882
165.00 1.74126
165.50 1.74380
166.00 1.74644
166.50 1.74808
167.00 1.74942
167.50 1.75031
168.00 1.74992
168.50 1.74964
169.00 1.74944
169.50 1.74935
170.00 1.74792
170.50 1.74577
171.00 1.74267
171.50 1.74082
172.00 1.73958
172.50 1.73847
173.00 1.73750
173.50 1.73629
174.00 1.73465
174.50 1.73315
175.00 1.73215
175.50 1.73150
176.00 1.73097
176.50 1.73049
177.00 1.73014
177.50 1.72993
178.00 1.72985
178.50 1.72987
179.00 1.73002
179.50 1.73031
180.00 1.73073
180.00 1.73073
180.50 1.73031
181.00 1.73002
181.50 1.72987
182.00 1.72985
182.50 1.72993
183.00 1.73014
183.50 1.73049
184.00 1.73097
184.50 1.73150
185.00 1.73215
185.50 1.73315
186.00 1.73465
186.50 1.73629
187.00 1.73750
187.50 1.73847
188.00 1.73958
188.50 1.74082
189.00 1.74267
189.50 1.74577
190.00 1.74792
190.50 1.74935
191.00 1.74944
191.50 1.74964
192.00 1.74992
192.50 1.75031
193.00 1.74942
193.50 1.74808
194.00 1.74644
194.50 1.74380
195.00 1.74126
195.50 1.73882
196.00 1.73648
196.50 1.73441
197.00 1.73255
197.50 1.73098
198.00 1.72729
198.50 1.72331
199.00 1.71939
199.50 1.71555
200.00 1.71209
200.50 1.70991
201.00 1.70779
201.50 1.69952
202.00 1.69031
202.50 1.68113
203.00 1.67199
203.50 1.66352
204.00 1.65716
204.50 1.64315
205.00 1.62676
205.50 1.61181
206.00 1.59690
206.50 1.58201
207.00 1.56717
207.50 1.55091
208.00 1.53331
208.50 1.51567
209.00 1.49762
209.50 1.47962
210.00 1.46168
210.50 1.44380
211.00 1.42625
211.50 1.41013
212.00 1.39427
212.50 1.37458
213.00 1.35491
213.50 1.33525
214.00 1.31561
214.50 1.29599
215.00 1.27666
215.50 1.25803
216.00 1.23524
216.50 1.21151
217.00 1.18889
217.50 1.16634
218.00 1.14378
218.50 1.12040
219.00 1.09705
219.50 1.07394
220.00 1.05089
220.50 1.02789
221.00 1.00515
221.50 0.98345
222.00 0.96179
222.50 0.94019
223.00 0.91957
223.50 0.89925
224.00 0.87924
224.50 0.85974
225.00 0.84050
225.50 0.82257
226.00 0.80436
226.50 0.78693
227.00 0.77066
227.50 0.75441
228.00 0.73911
228.50 0.72465
229.00 0.71019
229.50 0.69338
230.00 0.67813
230.50 0.66592
231.00 0.65340
231.50 0.63767
232.00 0.62189
232.50 0.60607
233.00 0.59013
233.50 0.57089
234.00 0.55408
234.50 0.53712
235.00 0.51999
235.50 0.50271
236.00 0.48395
236.50 0.46435
237.00 0.44143
237.50 0.41832
238.00 0.39505
238.50 0.37022
239.00 0.34126
239.50 0.31216
240.00 0.28878
240.50 0.26596
241.00 0.24303
241.50 0.21999
242.00 0.19386
242.50 0.16753
243.00 0.14921
243.50 0.13242
244.00 0.11862
244.50 0.10482
245.00 0.09102
245.50 0.07938
246.00 0.07080
246.50 0.06220
247.00 0.05385
247.50 0.04734
248.00 0.04083
248.50 0.03561
249.00 0.03212
249.50 0.02863
250.00 0.02513
250.50 0.02163
251.00 0.01837
251.50 0.01635
252.00 0.01471
252.50 0.01309
253.00 0.01147
253.50 0.00985
254.00 0.00835
254.50 0.00750
255.00 0.00666
255.50 0.00581
256.00 0.00507
256.50 0.00435
257.00 0.00386
257.50 0.00348
258.00 0.00311
258.50 0.00274
259.00 0.00238
259.50 0.00201
260.00 0.00181
260.50 0.00162
261.00 0.00142
261.50 0.00126
262.00 0.00112
262.50 0.00099
263.00 0.00088
263.50 0.00078
264.00 0.00069
264.50 0.00063
265.00 0.00057
265.50 0.00051
266.00 0.00046
266.50 0.00041
267.00 0.00038
267.50 0.00036
268.00 0.00033
268.50 0.00031
269.00 0.00030
269.50 0.00029
270.00 0.00027
270.00 0.00027
270.50 0.00029
271.00 0.00030
271.50 0.00031
272.00 0.00033
272.50 0.00036
273.00 0.00038
273.50 0.00041
274.00 0.00046
274.50 0.00051
275.00 0.00057
275.50 0.00063
276.00 0.00069
276.50 0.00078
277.00 0.00088
277.50 0.00099
278.00 0.00112
278.50 0.00126
279.00 0.00142
279.50 0.00162
280.00 0.00181
280.50 0.00201
281.00 0.00238
281.50 0.00274
282.00 0.00311
282.50 0.00348
283.00 0.00386
283.50 0.00435
284.00 0.00507
284.50 0.00581
285.00 0.00666
285.50 0.00750
286.00 0.00835
286.50 0.00985
287.00 0.01147
287.50 0.01309
288.00 0.01471
288.50 0.01635
289.00 0.01837
289.50 0.02163
290.00 0.02513
290.50 0.02863
291.00 0.03212
291.50 0.03561
292.00 0.04083
292.50 0.04734
293.00 0.05385
293.50 0.06220
294.00 0.07080
294.50 0.07938
295.00 0.09102
295.50 0.10482
296.00 0.11862
296.50 0.13242
297.00 0.14921
297.50 0.16753
298.00 0.19386
298.50 0.21999
299.00 0.24303
299.50 0.26596
300.00 0.28878
300.50 0.31216
301.00 0.34126
301.50 0.37022
302.00 0.39505
302.50 0.41832
303.00 0.44143
303.50 0.46435
304.00 0.48395
304.50 0.50271
305.00 0.51999
305.50 0.53712
306.00 0.55408
306.50 0.57089
307.00 0.59013
307.50 0.60607
308.00 0.62189
308.50 0.63767
309.00 0.65340
309.50 0.66592
310.00 0.67813
310.50 0.69338
311.00 0.71019
311.50 0.72465
312.00 0.73911
312.50 0.75441
313.00 0.77066
313.50 0.78693
314.00 0.80436
314.50 0.82257
315.00 0.84050
315.50 0.85974
316.00 0.87924
316.50 0.89925
317.00 0.91957
317.50 0.94019
318.00 0.96179
318.50 0.98345
319.00 1.00515
319.50 1.02789
320.00 1.05089
320.50 1.07394
321.00 1.09705
321.50 1.12040
322.00 1.14378
322.50 1.16634
323.00 1.18889
323.50 1.21151
324.00 1.23524
324.50 1.25803
325.00 1.27666
325.50 1.29599
326.00 1.31561
326.50 1.33525
327.00 1.35491
327.50 1.37458
328.00 1.39427
328.50 1.41013
329.00 1.42625
329.50 1.44380
330.00 1.46168
330.50 1.47962
331.00 1.49762
331.50 1.51567
332.00 1.53331
332.50 1.55091
333.00 1.56717
333.50 1.58201
334.00 1.59690
334.50 1.61181
335.00 1.62676
335.50 1.64315
336.00 1.65716
336.50 1.66352
337.00 1.67199
337.50 1.68113
338.00 1.69031
338.50 1.69952
339.00 1.70779
339.50 1.70991
340.00 1.71209
340.50 1.71555
341.00 1.71939
341.50 1.72331
342.00 1.72729
342.50 1.73098
343.00 1.73255
343.50 1.73441
344.00 1.73648
344.50 1.73882
345.00 1.74126
345.50 1.74380
346.00 1.74644
346.50 1.74808
347.00 1.74942
347.50 1.75031
348.00 1.74992
348.50 1.74964
349.00 1.74944
349.50 1.74935
350.00 1.74792
350.50 1.74577
351.00 1.74267
351.50 1.74082
352.00 1.73958
352.50 1.73847
353.00 1.73750
353.50 1.73629
354.00 1.73465
354.50 1.73315
355.00 1.73215
355.50 1.73150
356.00 1.73097
356.50 1.73049
357.00 1.73014
357.50 1.72993
358.00 1.72985
358.50 1.72987
359.00 1.73002
359.50 1.73031
360.00 1.73073
