phi[deg] B[T]
0.00 1.70769
0.50 1.70751
1.00 1.70745
1.50 1.70752
2.00 1.70773
2.50 1.70806
3.00 1.70856
3.50 1.70925
4.00 1.71005
4.50 1.71098
5.00 1.71203
5.50 1.71321
6.00 1.71452
6.50 1.71595
7.00 1.71750
7.50 1.71812
8.00 1.71846
8.50 1.71911
9.00 1.72001
9.50 1.72102
10.00 1.72213
10.50 1.72297
11.00 1.72106
11.50 1.71925
12.00 1.71877
12.50 1.71846
13.00 1.71822
13.50 1.71779
14.00 1.71499
14.50 1.71228
15.00 1.70966
15.50 1.70647
16.00 1.70238
16.50 1.69836
17.00 1.69436
17.50 1.68952
18.00 1.68476
18.50 1.68008
19.00 1.67547
19.50 1.67094
20.00 1.66550
20.50 1.65747
21.00 1.64988
21.50 1.64237
22.00 1.63492
22.50 1.62753
23.00 1.62018
23.50 1.61289
24.00 1.60072
24.50 1.58818
25.00 1.57558
25.50 1.56279
26.00 1.55005
26.50 1.53735
27.00 1.52468
27.50 1.51206
28.00 1.49586
28.50 1.47917
29.00 1.46250
29.50 1.44679
30.00 1.43240
30.50 1.41802
31.00 1.40365
31.50 1.38852
32.00 1.37184
32.50 1.35518
33.00 1.33854
33.50 1.32002
34.00 1.30054
34.50 1.28106
35.00 1.26158
35.50 1.24308
36.00 1.22468
36.50 1.20628
37.00 1.18593
37.50 1.16505
38.00 1.14418
38.50 1.12331
39.00 1.10177
39.50 1.08105
40.00 1.06055
40.50 1.04005
41.00 1.01955
41.50 0.99749
42.00 0.97640
42.50 0.95651
43.00 0.93660
43.50 0.91606
44.00 0.89538
44.50 0.87469
45.00 0.85358
45.50 0.83213
46.00 0.81202
46.50 0.79186
47.00 0.77162
47.50 0.75114
48.00 0.73061
48.50 0.70990
49.00 0.68861
49.50 0.66861
50.00 0.64857
50.50 0.62848
51.00 0.60835
51.50 0.58715
52.00 0.56689
52.50 0.54764
53.00 0.52832
53.50 0.50894
54.00 0.49057
54.50 0.47253
55.00 0.45443
55.50 0.43545
56.00 0.41584
56.50 0.39616
57.00 0.37704
57.50 0.35796
58.00 0.33882
58.50 0.31962
59.00 0.30035
59.50 0.28419
60.00 0.26820
60.50 0.25217
61.00 0.23560
61.50 0.21868
62.00 0.20172
62.50 0.18472
63.00 0.16956
63.50 0.15688
64.00 0.14418
64.50 0.13145
65.00 0.11962
65.50 0.10972
66.00 0.10080
66.50 0.09307
67.00 0.08534
67.50 0.07759
68.00 0.06983
68.50 0.06424
69.00 0.05965
69.50 0.05505
70.00 0.05047
70.50 0.04589
71.00 0.04174
71.50 0.03759
72.00 0.03344
72.50 0.03041
73.00 0.02836
73.50 0.02630
74.00 0.02425
74.50 0.02221
75.00 0.02018
75.50 0.01814
76.00 0.01611
76.50 0.01471
77.00 0.01361
77.50 0.01252
78.00 0.01143
78.50 0.01041
79.00 0.00956
79.50 0.00871
80.00 0.00787
80.50 0.00721
81.00 0.00666
81.50 0.00610
82.00 0.00559
82.50 0.00519
83.00 0.00479
83.50 0.00439
84.00 0.00403
84.50 0.00374
85.00 0.00346
85.50 0.00329
86.00 0.00313
86.50 0.00297
87.00 0.00280
87.50 0.00264
88.00 0.00256
88.50 0.00249
89.00 0.00241
89.50 0.00234
90.00 0.00227
90.00 0.00227
90.50 0.00234
91.00 0.00241
91.50 0.00249
92.00 0.00256
92.50 0.00264
93.00 0.00280
93.50 0.00297
94.00 0.00313
94.50 0.00329
95.00 0.00346
95.50 0.00374
96.00 0.00403
96.50 0.00439
97.00 0.00479
97.50 0.00519
98.00 0.00559
98.50 0.00610
99.00 0.00666
99.50 0.00721
100.00 0.00787
100.50 0.00871
101.00 0.00956
101.50 0.01041
102.00 0.01143
102.50 0.01252
103.00 0.01361
103.50 0.01471
104.00 0.01611
104.50 0.01814
105.00 0.02018
105.50 0.02221
106.00 0.02425
106.50 0.02630
107.00 0.02836
107.50 0.03041
108.00 0.03344
108.50 0.03759
109.00 0.04174
109.50 0.04589
110.00 0.05047
110.50 0.05505
111.00 0.05965
111.50 0.06424
112.00 0.06983
112.50 0.07759
113.00 0.08534
113.50 0.09307
114.00 0.10080
114.50 0.10972
115.00 0.11962
115.50 0.13145
116.00 0.14418
116.50 0.15688
117.00 0.16956
117.50 0.18472
118.00 0.20172
118.50 0.21868
119.00 0.23560
119.50 0.25217
120.00 0.26820
120.50 0.28419
121.00 0.30035
121.50 0.31962
122.00 0.33882
122.50 0.35796
123.00 0.37704
123.50 0.39616
124.00 0.41584
124.50 0.43545
125.00 0.45443
125.50 0.47253
126.00 0.49057
126.50 0.50894
127.00 0.52832
127.50 0.54764
128.00 0.56689
128.50 0.58715
129.00 0.60835
129.50 0.62848
130.00 0.64857
130.50 0.66861
131.00 0.68861
131.50 0.70990
132.00 0.73061
132.50 0.75114
133.00 0.77162
133.50 0.79186
134.00 0.81202
134.50 0.83213
135.00 0.85358
135.50 0.87469
136.00 0.89538
136.50 0.91606
137.00 0.93660
137.50 0.95651
138.00 0.97640
138.50 0.99749
139.00 1.01955
139.50 1.04005
140.00 1.06055
140.50 1.08105
141.00 1.10177
141.50 1.12331
142.00 1.14418
142.50 1.16505
143.00 1.18593
143.50 1.20628
144.00 1.22468
144.50 1.24308
145.00 1.26158
145.50 1.28106
146.00 1.30054
146.50 1.32002
147.00 1.33854
147.50 1.35518
148.00 1.37184
148.50 1.38852
149.00 1.40365
149.50 1.41802
150.00 1.43240
150.50 1.44679
151.00 1.46250
151.50 1.47917
152.00 1.49586
152.50 1.51206
153.00 1.52468
153.50 1.53735
154.00 1.55005
154.50 1.56279
155.00 1.57558
155.50 1.58818
156.00 1.60072
156.50 1.61289
157.00 1.62018
157.50 1.62753
158.00 1.63492
158.50 1.64237
159.00 1.64988
159.50 1.65747
160.00 1.66550
160.50 1.67094
161.00 1.67547
161.50 1.68008
162.00 1.68476
162.50 1.68952
163.00 1.69436
163.50 1.69836
164.00 1.70238
164.50 1.70647
165.00 1.70966
165.50 1.71228
166.00 1.71499
166.50 1.71779
167.00 1.71822
167.50 1.71846
168.00 1.71877
168.50 1.71925
169.00 1.72106
169.50 1.72297
170.00 1.72213
170.50 1.72102
171.00 1.72001
171.50 1.71911
172.00 1.71846
172.50 1.71812
173.00 1.71750
173.50 1.71595
174.00 1.71452
174.50 1.71321
175.00 1.71203
175.50 1.71098
176.00 1.71005
176.50 1.70925
177.00 1.70856
177.50 1.70806
178.00 1.70773
178.50 1.70752
179.00 1.70745
179.50 1.70751
180.00 1.70769
180.00 1.70769
180.50 1.70751
181.00 1.70745
181.50 1.70752
182.00 1.70773
182.50 1.70806
183.00 1.70856
183.50 1.70925
184.00 1.71005
184.50 1.71098
185.00 1.71203
185.50 1.71321
186.00 1.71452
186.50 1.71595
187.00 1.71750
187.50 1.71812
188.00 1.71846
188.50 1.71911
189.00 1.72001
189.50 1.72102
190.00 1.72213
190.50 1.72297
191.00 1.72106
191.50 1.71925
192.00 1.71877
192.50 1.71846
193.00 1.71822
193.50 1.71779
194.00 1.71499
194.50 1.71228
195.00 1.70966
195.50 1.70647
196.00 1.70238
196.50 1.69836
197.00 1.69436
197.50 1.68952
198.00 1.68476
198.50 1.68008
199.00 1.67547
199.50 1.67094
200.00 1.66550
200.50 1.65747
201.00 1.64988
201.50 1.64237
202.00 1.63492
202.50 1.62753
203.00 1.62018
203.50 1.61289
204.00 1.60072
204.50 1.58818
205.00 1.57558
205.50 1.56279
206.00 1.55005
206.50 1.53735
207.00 1.52468
207.50 1.51206
208.00 1.49586
208.50 1.47917
209.00 1.46250
209.50 1.44679
210.00 1.43240
210.50 1.41802
211.00 1.40365
211.50 1.38852
212.00 1.37184
212.50 1.35518
213.00 1.33854
213.50 1.32002
214.00 1.30054
214.50 1.28106
215.00 1.26158
215.50 1.24308
216.00 1.22468
216.50 1.20628
217.00 1.18593
217.50 1.16505
218.00 1.14418
218.50 1.12331
219.00 1.10177
219.50 1.08105
220.00 1.06055
220.50 1.04005
221.00 1.01955
221.50 0.99749
222.00 0.97640
222.50 0.95651
223.00 0.93660
223.50 0.91606
224.00 0.89538
224.50 0.87469
225.00 0.85358
225.50 0.83213
226.00 0.81202
226.50 0.79186
227.00 0.77162
227.50 0.75114
228.00 0.73061
228.50 0.70990
229.00 0.68861
229.50 0.66861
230.00 0.64857
230.50 0.62848
231.00 0.60835
231.50 0.58715
232.00 0.56689
232.50 0.54764
233.00 0.52832
233.50 0.50894
234.00 0.49057
234.50 0.47253
235.00 0.45443
235.50 0.43545
236.00 0.41584
236.50 0.39616
237.00 0.37704
237.50 0.35796
238.00 0.33882
238.50 0.31962
239.00 0.30035
239.50 0.28419
240.00 0.26820
240.50 0.25217
241.00 0.23560
241.50 0.21868
242.00 0.20172
242.50 0.18472
243.00 0.16956
243.50 0.15688
244.00 0.14418
244.50 0.13145
245.00 0.11962
245.50 0.10972
246.00 0.10080
246.50 0.09307
247.00 0.08534
247.50 0.07759
248.00 0.06983
248.50 0.06424
249.00 0.05965
249.50 0.05505
250.00 0.05047
250.50 0.04589
251.00 0.04174
251.50 0.03759
252.00 0.03344
252.50 0.03041
253.00 0.02836
253.50 0.02630
254.00 0.02425
254.50 0.02221
255.00 0.02018
255.50 0.01814
256.00 0.01611
256.50 0.01471
257.00 0.01361
257.50 0.01252
258.00 0.01143
258.50 0.01041
259.00 0.00956
259.50 0.00871
260.00 0.00787
260.50 0.00721
261.00 0.00666
261.50 0.00610
262.00 0.00559
262.50 0.00519
263.00 0.00479
263.50 0.00439
264.00 0.00403
264.50 0.00374
265.00 0.00346
265.50 0.00329
266.00 0.00313
266.50 0.00297
267.00 0.00280
267.50 0.00264
268.00 0.00256
268.50 0.00249
269.00 0.00241
269.50 0.00234
270.00 0.00227
270.00 0.00227
270.50 0.00234
271.00 0.00241
271.50 0.00249
272.00 0.00256
272.50 0.00264
273.00 0.00280
273.50 0.00297
274.00 0.00313
274.50 0.00329
275.00 0.00346
275.50 0.00374
276.00 0.00403
276.50 0.00439
277.00 0.00479
277.50 0.00519
278.00 0.00559
278.50 0.00610
279.00 0.00666
279.50 0.00721
280.00 0.00787
280.50 0.00871
281.00 0.00956
281.50 0.01041
282.00 0.01143
282.50 0.01252
283.00 0.01361
283.50 0.01471
284.00 0.01611
284.50 0.01814
285.00 0.02018
285.50 0.02221
286.00 0.02425
286.50 0.02630
287.00 0.02836
287.50 0.03041
288.00 0.03344
288.50 0.03759
289.00 0.04174
289.50 0.04589
290.00 0.05047
290.50 0.05505
291.00 0.05965
291.50 0.06424
292.00 0.06983
292.50 0.07759
293.00 0.08534
293.50 0.09307
294.00 0.10080
294.50 0.10972
295.00 0.11962
295.50 0.13145
296.00 0.14418
296.50 0.15688
297.00 0.16956
297.50 0.18472
298.00 0.20172
298.50 0.21868
299.00 0.23560
299.50 0.25217
300.00 0.26820
300.50 0.28419
301.00 0.30035
301.50 0.31962
302.00 0.33882
302.50 0.35796
303.00 0.37704
303.50 0.39616
304.00 0.41584
304.50 0.43545
305.00 0.45443
305.50 0.47253
306.00 0.49057
306.50 0.50894
307.00 0.52832
307.50 0.54764
308.00 0.56689
308.50 0.58715
309.00 0.60835
309.50 0.62848
310.00 0.64857
310.50 0.66861
311.00 0.68861
311.50 0.70990
312.00 0.73061
312.50 0.75114
313.00 0.77162
313.50 0.79186
314.00 0.81202
314.50 0.83213
315.00 0.85358
315.50 0.87469
316.00 0.89538
316.50 0.91606
317.00 0.93660
317.50 0.95651
318.00 0.97640
318.50 0.99749
319.00 1.01955
319.50 1.04005
320.00 1.06055
320.50 1.08105
321.00 1.10177
321.50 1.12331
322.00 1.14418
322.50 1.16505
323.00 1.18593
323.50 1.20628
324.00 1.22468
324.50 1.24308
325.00 1.26158
325.50 1.28106
326.00 1.30054
326.50 1.32002
327.00 1.33854
327.50 1.35518
328.00 1.37184
328.50 1.38852
329.00 1.40365
329.50 1.41802
330.00 1.43240
330.50 1.44679
331.00 1.46250
331.50 1.47917
332.00 1.49586
332.50 1.51206
333.00 1.52468
333.50 1.53735
334.00 1.55005
334.50 1.56279
335.00 1.57558
335.50 1.58818
336.00 1.60072
336.50 1.61289
337.00 1.62018
337.50 1.62753
338.00 1.63492
338.50 1.64237
339.00 1.64988
339.50 1.65747
340.00 1.66550
340.50 1.67094
341.00 1.67547
341.50 1.68008
342.00 1.68476
342.50 1.68952
343.00 1.69436
343.50 1.69836
344.00 1.70238
344.50 1.70647
345.00 1.70966
345.50 1.71228
346.00 1.71499
346.50 1.71779
347.00 1.71822
347.50 1.71846
348.00 1.71877
348.50 1.71925
349.00 1.72106
349.50 1.72297
350.00 1.72213
350.50 1.72102
351.00 1.72001
351.50 1.71911
352.00 1.71846
352.50 1.71812
353.00 1.71750
353.50 1.71595
354.00 1.71452
354.50 1.71321
355.00 1.71203
355.50 1.71098
356.00 1.71005
356.50 1.70925
357.00 1.70856
357.50 1.70806
358.00 1.70773
358.50 1.70752
359.00 1.70745
359.50 1.70751
360.00 1.70769
