phi[deg] B[T]
0.00 1.12929
0.50 1.12883
1.00 1.12846
1.50 1.12815
2.00 1.12793
2.50 1.12767
3.00 1.12736
3.50 1.12713
4.00 1.12698
4.50 1.12690
5.00 1.12602
5.50 1.12495
6.00 1.12396
6.50 1.12305
7.00 1.12221
7.50 1.12145
8.00 1.12076
8.50 1.12019
9.00 1.11865
9.50 1.11713
10.00 1.11568
10.50 1.11430
11.00 1.11298
11.50 1.11173
12.00 1.11055
12.50 1.10943
13.00 1.10837
13.50 1.10738
14.00 1.10569
14.50 1.10350
15.00 1.10138
15.50 1.09931
16.00 1.09730
16.50 1.09535
17.00 1.09345
17.50 1.09162
18.00 1.08992
18.50 1.08857
19.00 1.08644
19.50 1.08309
20.00 1.07979
20.50 1.07652
21.00 1.07329
21.50 1.07009
22.00 1.06694
22.50 1.06397
23.00 1.06104
23.50 1.05552
24.00 1.04865
24.50 1.04179
25.00 1.03496
25.50 1.02815
26.00 1.02136
26.50 1.01496
27.00 1.00932
27.50 1.00050
28.00 0.99055
28.50 0.98036
29.00 0.97018
29.50 0.96002
30.00 0.94986
30.50 0.93972
31.00 0.92960
31.50 0.91949
32.00 0.90939
32.50 0.89878
33.00 0.88671
33.50 0.87492
34.00 0.86318
34.50 0.85162
35.00 0.84009
35.50 0.82860
36.00 0.81714
36.50 0.80572
37.00 0.79472
37.50 0.78376
38.00 0.77284
38.50 0.76196
39.00 0.75106
39.50 0.73983
40.00 0.72970
40.50 0.71959
41.00 0.70952
41.50 0.69929
42.00 0.68832
42.50 0.67862
43.00 0.66892
43.50 0.65892
44.00 0.64851
44.50 0.63810
45.00 0.62761
45.50 0.61699
46.00 0.60655
46.50 0.59609
47.00 0.58542
47.50 0.57466
48.00 0.56388
48.50 0.55191
49.00 0.54132
49.50 0.53068
50.00 0.52001
50.50 0.50675
51.00 0.49274
51.50 0.47867
52.00 0.46699
52.50 0.45600
53.00 0.44493
53.50 0.43219
54.00 0.41916
54.50 0.40434
55.00 0.38855
55.50 0.37266
56.00 0.35669
56.50 0.34068
57.00 0.32838
57.50 0.31399
58.00 0.29453
58.50 0.27812
59.00 0.26247
59.50 0.24674
60.00 0.23093
60.50 0.21503
61.00 0.19906
61.50 0.18301
62.00 0.16658
62.50 0.14803
63.00 0.13524
63.50 0.12539
64.00 0.11554
64.50 0.10568
65.00 0.09582
65.50 0.08596
66.00 0.07609
66.50 0.06690
67.00 0.06119
67.50 0.05621
68.00 0.05123
68.50 0.04625
69.00 0.04126
69.50 0.03628
70.00 0.03313
70.50 0.03048
71.00 0.02784
71.50 0.02519
72.00 0.02254
72.50 0.01989
73.00 0.01761
73.50 0.01630
74.00 0.01500
74.50 0.01368
75.00 0.01235
75.50 0.01103
76.00 0.00971
76.50 0.00839
77.00 0.00774
77.50 0.00715
78.00 0.00654
78.50 0.00594
79.00 0.00534
79.50 0.00473
80.00 0.00413
80.50 0.00374
81.00 0.00344
81.50 0.00316
82.00 0.00289
82.50 0.00261
83.00 0.00234
83.50 0.00216
84.00 0.00198
84.50 0.00181
85.00 0.00167
85.50 0.00154
86.00 0.00145
86.50 0.00138
87.00 0.00130
87.50 0.00123
88.00 0.00117
88.50 0.00114
89.00 0.00111
89.50 0.00107
90.00 0.00104
90.00 0.00104
90.50 0.00107
91.00 0.00111
91.50 0.00114
92.00 0.00117
92.50 0.00123
93.00 0.00130
93.50 0.00138
94.00 0.00145
94.50 0.00154
95.00 0.00167
95.50 0.00181
96.00 0.00198
96.50 0.00216
97.00 0.00234
97.50 0.00261
98.00 0.00289
98.50 0.00316
99.00 0.00344
99.50 0.00374
100.00 0.00413
100.50 0.00473
101.00 0.00534
101.50 0.00594
102.00 0.00654
102.50 0.00715
103.00 0.00774
103.50 0.00839
104.00 0.00971
104.50 0.01103
105.00 0.01235
105.50 0.01368
106.00 0.01500
106.50 0.01630
107.00 0.01761
107.50 0.01989
108.00 0.02254
108.50 0.02519
109.00 0.02784
109.50 0.03048
110.00 0.03313
110.50 0.03628
111.00 0.04126
111.50 0.04625
112.00 0.05123
112.50 0.05621
113.00 0.06119
113.50 0.06690
114.00 0.07609
114.50 0.08596
115.00 0.09582
115.50 0.10568
116.00 0.11554
116.50 0.12539
117.00 0.13524
117.50 0.14803
118.00 0.16658
118.50 0.18301
119.00 0.19906
119.50 0.21503
120.00 0.23093
120.50 0.24674
121.00 0.26247
121.50 0.27812
122.00 0.29453
122.50 0.31399
123.00 0.32838
123.50 0.34068
124.00 0.35669
124.50 0.37266
125.00 0.38855
125.50 0.40434
126.00 0.41916
126.50 0.43219
127.00 0.44493
127.50 0.45600
128.00 0.46699
128.50 0.47867
129.00 0.49274
129.50 0.50675
130.00 0.52001
130.50 0.53068
131.00 0.54132
131.50 0.55191
132.00 0.56388
132.50 0.57466
133.00 0.58542
133.50 0.59609
134.00 0.60655
134.50 0.61699
135.00 0.62761
135.50 0.63810
136.00 0.64851
136.50 0.65892
137.00 0.66892
137.50 0.67862
138.00 0.68832
138.50 0.69929
139.00 0.70952
139.50 0.71959
140.00 0.72970
140.50 0.73983
141.00 0.75106
141.50 0.76196
142.00 0.77284
142.50 0.78376
143.00 0.79472
143.50 0.80572
144.00 0.81714
144.50 0.82860
145.00 0.84009
145.50 0.85162
146.00 0.86318
146.50 0.87492
147.00 0.88671
147.50 0.89878
148.00 0.90939
148.50 0.91949
149.00 0.92960
149.50 0.93972
150.00 0.94986
150.50 0.96002
151.00 0.97018
151.50 0.98036
152.00 0.99055
152.50 1.00050
153.00 1.00932
153.50 1.01496
154.00 1.02136
154.50 1.02815
155.00 1.03496
155.50 1.04179
156.00 1.04865
156.50 1.05552
157.00 1.06104
157.50 1.06397
158.00 1.06694
158.50 1.07009
159.00 1.07329
159.50 1.07652
160.00 1.07979
160.50 1.08309
161.00 1.08644
161.50 1.08857
162.00 1.08992
162.50 1.09162
163.00 1.09345
163.50 1.09535
164.00 1.09730
164.50 1.09931
165.00 1.10138
165.50 1.10350
166.00 1.10569
166.50 1.10738
167.00 1.10837
167.50 1.10943
168.00 1.11055
168.50 1.11173
169.00 1.11298
169.50 1.11430
170.00 1.11568
170.50 1.11713
171.00 1.11865
171.50 1.12019
172.00 1.12076
172.50 1.12145
173.00 1.12221
173.50 1.12305
174.00 1.12396
174.50 1.12495
175.00 1.12602
175.50 1.12690
176.00 1.12698
176.50 1.12713
177.00 1.12736
177.50 1.12767
178.00 1.12793
178.50 1.12815
179.00 1.12846
179.50 1.12883
180.00 1.12929
180.00 1.12929
180.50 1.12883
181.00 1.12846
181.50 1.12815
182.00 1.12793
182.50 1.12767
183.00 1.12736
183.50 1.12713
184.00 1.12698
184.50 1.12690
185.00 1.12602
185.50 1.12495
186.00 1.12396
186.50 1.12305
187.00 1.12221
187.50 1.12145
188.00 1.12076
188.50 1.12019
189.00 1.11865
189.50 1.11713
190.00 1.11568
190.50 1.11430
191.00 1.11298
191.50 1.11173
192.00 1.11055
192.50 1.10943
193.00 1.10837
193.50 1.10738
194.00 1.10569
194.50 1.10350
195.00 1.10138
195.50 1.09931
196.00 1.09730
196.50 1.09535
197.00 1.09345
197.50 1.09162
198.00 1.08992
198.50 1.08857
199.00 1.08644
199.50 1.08309
200.00 1.07979
200.50 1.07652
201.00 1.07329
201.50 1.07009
202.00 1.06694
202.50 1.06397
203.00 1.06104
203.50 1.05552
204.00 1.04865
204.50 1.04179
205.00 1.03496
205.50 1.02815
206.00 1.02136
206.50 1.01496
207.00 1.00932
207.50 1.00050
208.00 0.99055
208.50 0.98036
209.00 0.97018
209.50 0.96002
210.00 0.94986
210.50 0.93972
211.00 0.92960
211.50 0.91949
212.00 0.90939
212.50 0.89878
213.00 0.88671
213.50 0.87492
214.00 0.86318
214.50 0.85162
215.00 0.84009
215.50 0.82860
216.00 0.81714
216.50 0.80572
217.00 0.79472
217.50 0.78376
218.00 0.77284
218.50 0.76196
219.00 0.75106
219.50 0.73983
220.00 0.72970
220.50 0.71959
221.00 0.70952
221.50 0.69929
222.00 0.68832
222.50 0.67862
223.00 0.66892
223.50 0.65892
224.00 0.64851
224.50 0.63810
225.00 0.62761
225.50 0.61699
226.00 0.60655
226.50 0.59609
227.00 0.58542
227.50 0.57466
228.00 0.56388
228.50 0.55191
229.00 0.54132
229.50 0.53068
230.00 0.52001
230.50 0.50675
231.00 0.49274
231.50 0.47867
232.00 0.46699
232.50 0.45600
233.00 0.44493
233.50 0.43219
234.00 0.41916
234.50 0.40434
235.00 0.38855
235.50 0.37266
236.00 0.35669
236.50 0.34068
237.00 0.32838
237.50 0.31399
238.00 0.29453
238.50 0.27812
239.00 0.26247
239.50 0.24674
240.00 0.23093
240.50 0.21503
241.00 0.19906
241.50 0.18301
242.00 0.16658
242.50 0.14803
243.00 0.13524
243.50 0.12539
244.00 0.11554
244.50 0.10568
245.00 0.09582
245.50 0.08596
246.00 0.07609
246.50 0.06690
247.00 0.06119
247.50 0.05621
248.00 0.05123
248.50 0.04625
249.00 0.04126
249.50 0.03628
250.00 0.03313
250.50 0.03048
251.00 0.02784
251.50 0.02519
252.00 0.02254
252.50 0.01989
253.00 0.01761
253.50 0.01630
254.00 0.01500
254.50 0.01368
255.00 0.01235
255.50 0.01103
256.00 0.00971
256.50 0.00839
257.00 0.00774
257.50 0.00715
258.00 0.00654
258.50 0.00594
259.00 0.00534
259.50 0.00473
260.00 0.00413
260.50 0.00374
261.00 0.00344
261.50 0.00316
262.00 0.00289
262.50 0.00261
263.00 0.00234
263.50 0.00216
264.00 0.00198
264.50 0.00181
265.00 0.00167
265.50 0.00154
266.00 0.00145
266.50 0.00138
267.00 0.00130
267.50 0.00123
268.00 0.00117
268.50 0.00114
269.00 0.00111
269.50 0.00107
270.00 0.00104
270.00 0.00104
270.50 0.00107
271.00 0.00111
271.50 0.00114
272.00 0.00117
272.50 0.00123
273.00 0.00130
273.50 0.00138
274.00 0.00145
274.50 0.00154
275.00 0.00167
275.50 0.00181
276.00 0.00198
276.50 0.00216
277.00 0.00234
277.50 0.00261
278.00 0.00289
278.50 0.00316
279.00 0.00344
279.50 0.00374
280.00 0.00413
280.50 0.00473
281.00 0.00534
281.50 0.00594
282.00 0.00654
282.50 0.00715
283.00 0.00774
283.50 0.00839
284.00 0.00971
284.50 0.01103
285.00 0.01235
285.50 0.01368
286.00 0.01500
286.50 0.01630
287.00 0.01761
287.50 0.01989
288.00 0.02254
288.50 0.02519
289.00 0.02784
289.50 0.03048
290.00 0.03313
290.50 0.03628
291.00 0.04126
291.50 0.04625
292.00 0.05123
292.50 0.05621
293.00 0.06119
293.50 0.06690
294.00 0.07609
294.50 0.08596
295.00 0.09582
295.50 0.10568
296.00 0.11554
296.50 0.12539
297.00 0.13524
297.50 0.14803
298.00 0.16658
298.50 0.18301
299.00 0.19906
299.50 0.21503
300.00 0.23093
300.50 0.24674
301.00 0.26247
301.50 0.27812
302.00 0.29453
302.50 0.31399
303.00 0.32838
303.50 0.34068
304.00 0.35669
304.50 0.37266
305.00 0.38855
305.50 0.40434
306.00 0.41916
306.50 0.43219
307.00 0.44493
307.50 0.45600
308.00 0.46699
308.50 0.47867
309.00 0.49274
309.50 0.50675
310.00 0.52001
310.50 0.53068
311.00 0.54132
311.50 0.55191
312.00 0.56388
312.50 0.57466
313.00 0.58542
313.50 0.59609
314.00 0.60655
314.50 0.61699
315.00 0.62761
315.50 0.63810
316.00 0.64851
316.50 0.65892
317.00 0.66892
317.50 0.67862
318.00 0.68832
318.50 0.69929
319.00 0.70952
319.50 0.71959
320.00 0.72970
320.50 0.73983
321.00 0.75106
321.50 0.76196
322.00 0.77284
322.50 0.78376
323.00 0.79472
323.50 0.80572
324.00 0.81714
324.50 0.82860
325.00 0.84009
325.50 0.85162
326.00 0.86318
326.50 0.87492
327.00 0.88671
327.50 0.89878
328.00 0.90939
328.50 0.91949
329.00 0.92960
329.50 0.93972
330.00 0.94986
330.50 0.96002
331.00 0.97018
331.50 0.98036
332.00 0.99055
332.50 1.00050
333.00 1.00932
333.50 1.01496
334.00 1.02136
334.50 1.02815
335.00 1.03496
335.50 1.04179
336.00 1.04865
336.50 1.05552
337.00 1.06104
337.50 1.06397
338.00 1.06694
338.50 1.07009
339.00 1.07329
339.50 1.07652
340.00 1.07979
340.50 1.08309
341.00 1.08644
341.50 1.08857
342.00 1.08992
342.50 1.09162
343.00 1.09345
343.50 1.09535
344.00 1.09730
344.50 1.09931
345.00 1.10138
345.50 1.10350
346.00 1.10569
346.50 1.10738
347.00 1.10837
347.50 1.10943
348.00 1.11055
348.50 1.11173
349.00 1.11298
349.50 1.11430
350.00 1.11568
350.50 1.11713
351.00 1.11865
351.50 1.12019
352.00 1.12076
352.50 1.12145
353.00 1.12221
353.50 1.12305
354.00 1.12396
354.50 1.12495
355.00 1.12602
355.50 1.12690
356.00 1.12698
356.50 1.12713
357.00 1.12736
357.50 1.12767
358.00 1.12793
358.50 1.12815
359.00 1.12846
359.50 1.12883
360.00 1.12929
