phi[deg] B[T]
0.00 1.54826
0.50 1.54735
1.00 1.54656
1.50 1.54588
2.00 1.54485
2.50 1.54404
3.00 1.54335
3.50 1.54228
4.00 1.54106
4.50 1.54081
5.00 1.54071
5.50 1.54099
6.00 1.54160
6.50 1.54233
7.00 1.54302
7.50 1.54383
8.00 1.54543
8.50 1.54785
9.00 1.55038
9.50 1.55178
10.00 1.55249
10.50 1.55330
11.00 1.55479
11.50 1.55639
12.00 1.55768
12.50 1.55636
13.00 1.55512
13.50 1.55386
14.00 1.55221
14.50 1.55040
15.00 1.54800
15.50 1.54575
16.00 1.54373
16.50 1.54181
17.00 1.54007
17.50 1.53853
18.00 1.53708
18.50 1.53573
19.00 1.53401
19.50 1.53029
20.00 1.52695
20.50 1.52531
21.00 1.52372
21.50 1.52218
22.00 1.51639
22.50 1.50770
23.00 1.49905
23.50 1.49239
24.00 1.48693
24.50 1.47044
25.00 1.45445
25.50 1.44023
26.00 1.42604
26.50 1.41189
27.00 1.39380
27.50 1.37527
28.00 1.35791
28.50 1.34082
29.00 1.32379
29.50 1.30660
30.00 1.28992
30.50 1.27373
31.00 1.25754
31.50 1.24127
32.00 1.22498
32.50 1.20779
33.00 1.19230
33.50 1.17719
34.00 1.16212
34.50 1.14483
35.00 1.12745
35.50 1.11011
36.00 1.09480
36.50 1.07746
37.00 1.05927
37.50 1.04102
38.00 1.02280
38.50 1.00442
39.00 0.98580
39.50 0.96690
40.00 0.94786
40.50 0.92958
41.00 0.91116
41.50 0.89185
42.00 0.87258
42.50 0.85346
43.00 0.83446
43.50 0.81545
44.00 0.79650
44.50 0.77735
45.00 0.75839
45.50 0.73959
46.00 0.72108
46.50 0.70298
47.00 0.68555
47.50 0.66851
48.00 0.65328
48.50 0.63830
49.00 0.62322
49.50 0.60817
50.00 0.59652
50.50 0.58581
51.00 0.57732
51.50 0.56400
52.00 0.54971
52.50 0.53539
53.00 0.52624
53.50 0.51663
54.00 0.50578
54.50 0.48856
55.00 0.47120
55.50 0.45369
56.00 0.43625
56.50 0.41930
57.00 0.40222
57.50 0.37948
58.00 0.35613
58.50 0.33259
59.00 0.30557
59.50 0.27620
60.00 0.24697
60.50 0.22586
61.00 0.20466
61.50 0.18336
62.00 0.15869
62.50 0.13285
63.00 0.11565
63.50 0.09956
64.00 0.08702
64.50 0.07457
65.00 0.06367
65.50 0.05609
66.00 0.04849
66.50 0.04088
67.00 0.03420
67.50 0.02982
68.00 0.02640
68.50 0.02296
69.00 0.01942
69.50 0.01589
70.00 0.01399
70.50 0.01244
71.00 0.01090
71.50 0.00935
72.00 0.00780
72.50 0.00626
73.00 0.00550
73.50 0.00494
74.00 0.00438
74.50 0.00382
75.00 0.00326
75.50 0.00270
76.00 0.00222
76.50 0.00199
77.00 0.00177
77.50 0.00154
78.00 0.00132
78.50 0.00110
79.00 0.00099
79.50 0.00087
80.00 0.00078
80.50 0.00068
81.00 0.00061
81.50 0.00056
82.00 0.00050
82.50 0.00044
83.00 0.00039
83.50 0.00036
84.00 0.00033
84.50 0.00029
85.00 0.00026
85.50 0.00023
86.00 0.00020
86.50 0.00018
87.00 0.00015
87.50 0.00012
88.00 0.00010
88.50 0.00007
89.00 0.00006
89.50 0.00006
90.00 0.00005
90.00 0.00005
90.50 0.00006
91.00 0.00006
91.50 0.00007
92.00 0.00010
92.50 0.00012
93.00 0.00015
93.50 0.00018
94.00 0.00020
94.50 0.00023
95.00 0.00026
95.50 0.00029
96.00 0.00033
96.50 0.00036
97.00 0.00039
97.50 0.00044
98.00 0.00050
98.50 0.00056
99.00 0.00061
99.50 0.00068
100.00 0.00078
100.50 0.00087
101.00 0.00099
101.50 0.00110
102.00 0.00132
102.50 0.00154
103.00 0.00177
103.50 0.00199
104.00 0.00222
104.50 0.00270
105.00 0.00326
105.50 0.00382
106.00 0.00438
106.50 0.00494
107.00 0.00550
107.50 0.00626
108.00 0.00780
108.50 0.00935
109.00 0.01090
109.50 0.01244
110.00 0.01399
110.50 0.01589
111.00 0.01942
111.50 0.02296
112.00 0.02640
112.50 0.02982
113.00 0.03420
113.50 0.04088
114.00 0.04849
114.50 0.05609
115.00 0.06367
115.50 0.07457
116.00 0.08702
116.50 0.09956
117.00 0.11565
117.50 0.13285
118.00 0.15869
118.50 0.18336
119.00 0.20466
119.50 0.22586
120.00 0.24697
120.50 0.27620
121.00 0.30557
121.50 0.33259
122.00 0.35613
122.50 0.37948
123.00 0.40222
123.50 0.41930
124.00 0.43625
124.50 0.45369
125.00 0.47120
125.50 0.48856
126.00 0.50578
126.50 0.51663
127.00 0.52624
127.50 0.53539
128.00 0.54971
128.50 0.56400
129.00 0.57732
129.50 0.58581
130.00 0.59652
130.50 0.60817
131.00 0.62322
131.50 0.63830
132.00 0.65328
132.50 0.66851
133.00 0.68555
133.50 0.70298
134.00 0.72108
134.50 0.73959
135.00 0.75839
135.50 0.77735
136.00 0.79650
136.50 0.81545
137.00 0.83446
137.50 0.85346
138.00 0.87258
138.50 0.89185
139.00 0.91116
139.50 0.92958
140.00 0.94786
140.50 0.96690
141.00 0.98580
141.50 1.00442
142.00 1.02280
142.50 1.04102
143.00 1.05927
143.50 1.07746
144.00 1.09480
144.50 1.11011
145.00 1.12745
145.50 1.14483
146.00 1.16212
146.50 1.17719
147.00 1.19230
147.50 1.20779
148.00 1.22498
148.50 1.24127
149.00 1.25754
149.50 1.27373
150.00 1.28992
150.50 1.30660
151.00 1.32379
151.50 1.34082
152.00 1.35791
152.50 1.37527
153.00 1.39380
153.50 1.41189
154.00 1.42604
154.50 1.44023
155.00 1.45445
155.50 1.47044
156.00 1.48693
156.50 1.49239
157.00 1.49905
157.50 1.50770
158.00 1.51639
158.50 1.52218
159.00 1.52372
159.50 1.52531
160.00 1.52695
160.50 1.53029
161.00 1.53401
161.50 1.53573
162.00 1.53708
162.50 1.53853
163.00 1.54007
163.50 1.54181
164.00 1.54373
164.50 1.54575
165.00 1.54800
165.50 1.55040
166.00 1.55221
166.50 1.55386
167.00 1.55512
167.50 1.55636
168.00 1.55768
168.50 1.55639
169.00 1.55479
169.50 1.55330
170.00 1.55249
170.50 1.55178
171.00 1.55038
171.50 1.54785
172.00 1.54543
172.50 1.54383
173.00 1.54302
173.50 1.54233
174.00 1.54160
174.50 1.54099
175.00 1.54071
175.50 1.54081
176.00 1.54106
176.50 1.54228
177.00 1.54335
177.50 1.54404
178.00 1.54485
178.50 1.54588
179.00 1.54656
179.50 1.54735
180.00 1.54826
180.00 1.54826
180.50 1.54735
181.00 1.54656
181.50 1.54588
182.00 1.54485
182.50 1.54404
183.00 1.54335
183.50 1.54228
184.00 1.54106
184.50 1.54081
185.00 1.54071
185.50 1.54099
186.00 1.54160
186.50 1.54233
187.00 1.54302
187.50 1.54383
188.00 1.54543
188.50 1.54785
189.00 1.55038
189.50 1.55178
190.00 1.55249
190.50 1.55330
191.00 1.55479
191.50 1.55639
192.00 1.55768
192.50 1.55636
193.00 1.55512
193.50 1.55386
194.00 1.55221
194.50 1.55040
195.00 1.54800
195.50 1.54575
196.00 1.54373
196.50 1.54181
197.00 1.54007
197.50 1.53853
198.00 1.53708
198.50 1.53573
199.00 1.53401
199.50 1.53029
200.00 1.52695
200.50 1.52531
201.00 1.52372
201.50 1.52218
202.00 1.51639
202.50 1.50770
203.00 1.49905
203.50 1.49239
204.00 1.48693
204.50 1.47044
205.00 1.45445
205.50 1.44023
206.00 1.42604
206.50 1.41189
207.00 1.39380
207.50 1.37527
208.00 1.35791
208.50 1.34082
209.00 1.32379
209.50 1.30660
210.00 1.28992
210.50 1.27373
211.00 1.25754
211.50 1.24127
212.00 1.22498
212.50 1.20779
213.00 1.19230
213.50 1.17719
214.00 1.16212
214.50 1.14483
215.00 1.12745
215.50 1.11011
216.00 1.09480
216.50 1.07746
217.00 1.05927
217.50 1.04102
218.00 1.02280
218.50 1.00442
219.00 0.98580
219.50 0.96690
220.00 0.94786
220.50 0.92958
221.00 0.91116
221.50 0.89185
222.00 0.87258
222.50 0.85346
223.00 0.83446
223.50 0.81545
224.00 0.79650
224.50 0.77735
225.00 0.75839
225.50 0.73959
226.00 0.72108
226.50 0.70298
227.00 0.68555
227.50 0.66851
228.00 0.65328
228.50 0.63830
229.00 0.62322
229.50 0.60817
230.00 0.59652
230.50 0.58581
231.00 0.57732
231.50 0.56400
232.00 0.54971
232.50 0.53539
233.00 0.52624
233.50 0.51663
234.00 0.50578
234.50 0.48856
235.00 0.47120
235.50 0.45369
236.00 0.43625
236.50 0.41930
237.00 0.40222
237.50 0.37948
238.00 0.35613
238.50 0.33259
239.00 0.30557
239.50 0.27620
240.00 0.24697
240.50 0.22586
241.00 0.20466
241.50 0.18336
242.00 0.15869
242.50 0.13285
243.00 0.11565
243.50 0.09956
244.00 0.08702
244.50 0.07457
245.00 0.06367
245.50 0.05609
246.00 0.04849
246.50 0.04088
247.00 0.03420
247.50 0.02982
248.00 0.02640
248.50 0.02296
249.00 0.01942
249.50 0.01589
250.00 0.01399
250.50 0.01244
251.00 0.01090
251.50 0.00935
252.00 0.00780
252.50 0.00626
253.00 0.00550
253.50 0.00494
254.00 0.00438
254.50 0.00382
255.00 0.00326
255.50 0.00270
256.00 0.00222
256.50 0.00199
257.00 0.00177
257.50 0.00154
258.00 0.00132
258.50 0.00110
259.00 0.00099
259.50 0.00087
260.00 0.00078
260.50 0.00068
261.00 0.00061
261.50 0.00056
262.00 0.00050
262.50 0.00044
263.00 0.00039
263.50 0.00036
264.00 0.00033
264.50 0.00029
265.00 0.00026
265.50 0.00023
266.00 0.00020
266.50 0.00018
267.00 0.00015
267.50 0.00012
268.00 0.00010
268.50 0.00007
269.00 0.00006
269.50 0.00006
270.00 0.00005
270.00 0.00005
270.50 0.00006
271.00 0.00006
271.50 0.00007
272.00 0.00010
272.50 0.00012
273.00 0.00015
273.50 0.00018
274.00 0.00020
274.50 0.00023
275.00 0.00026
275.50 0.00029
276.00 0.00033
276.50 0.00036
277.00 0.00039
277.50 0.00044
278.00 0.00050
278.50 0.00056
279.00 0.00061
279.50 0.00068
280.00 0.00078
280.50 0.00087
281.00 0.00099
281.50 0.00110
282.00 0.00132
282.50 0.00154
283.00 0.00177
283.50 0.00199
284.00 0.00222
284.50 0.00270
285.00 0.00326
285.50 0.00382
286.00 0.00438
286.50 0.00494
287.00 0.00550
287.50 0.00626
288.00 0.00780
288.50 0.00935
289.00 0.01090
289.50 0.01244
290.00 0.01399
290.50 0.01589
291.00 0.01942
291.50 0.02296
292.00 0.02640
292.50 0.02982
293.00 0.03420
293.50 0.04088
294.00 0.04849
294.50 0.05609
295.00 0.06367
295.50 0.07457
296.00 0.08702
296.50 0.09956
297.00 0.11565
297.50 0.13285
298.00 0.15869
298.50 0.18336
299.00 0.20466
299.50 0.22586
300.00 0.24697
300.50 0.27620
301.00 0.30557
301.50 0.33259
302.00 0.35613
302.50 0.37948
303.00 0.40222
303.50 0.41930
304.00 0.43625
304.50 0.45369
305.00 0.47120
305.50 0.48856
306.00 0.50578
306.50 0.51663
307.00 0.52624
307.50 0.53539
308.00 0.54971
308.50 0.56400
309.00 0.57732
309.50 0.58581
310.00 0.59652
310.50 0.60817
311.00 0.62322
311.50 0.63830
312.00 0.65328
312.50 0.66851
313.00 0.68555
313.50 0.70298
314.00 0.72108
314.50 0.73959
315.00 0.75839
315.50 0.77735
316.00 0.79650
316.50 0.81545
317.00 0.83446
317.50 0.85346
318.00 0.87258
318.50 0.89185
319.00 0.91116
319.50 0.92958
320.00 0.94786
320.50 0.96690
321.00 0.98580
321.50 1.00442
322.00 1.02280
322.50 1.04102
323.00 1.05927
323.50 1.07746
324.00 1.09480
324.50 1.11011
325.00 1.12745
325.50 1.14483
326.00 1.16212
326.50 1.17719
327.00 1.19230
327.50 1.20779
328.00 1.22498
328.50 1.24127
329.00 1.25754
329.50 1.27373
330.00 1.28992
330.50 1.30660
331.00 1.32379
331.50 1.34082
332.00 1.35791
332.50 1.37527
333.00 1.39380
333.50 1.41189
334.00 1.42604
334.50 1.44023
335.00 1.45445
335.50 1.47044
336.00 1.48693
336.50 1.49239
337.00 1.49905
337.50 1.50770
338.00 1.51639
338.50 1.52218
339.00 1.52372
339.50 1.52531
340.00 1.52695
340.50 1.53029
341.00 1.53401
341.50 1.53573
342.00 1.53708
342.50 1.53853
343.00 1.54007
343.50 1.54181
344.00 1.54373
344.50 1.54575
345.00 1.54800
345.50 1.55040
346.00 1.55221
346.50 1.55386
347.00 1.55512
347.50 1.55636
348.00 1.55768
348.50 1.55639
349.00 1.55479
349.50 1.55330
350.00 1.55249
350.50 1.55178
351.00 1.55038
351.50 1.54785
352.00 1.54543
352.50 1.54383
353.00 1.54302
353.50 1.54233
354.00 1.54160
354.50 1.54099
355.00 1.54071
355.50 1.54081
356.00 1.54106
356.50 1.54228
357.00 1.54335
357.50 1.54404
358.00 1.54485
358.50 1.54588
359.00 1.54656
359.50 1.54735
360.00 1.54826
