phi[deg] B[T]
0.00 1.48142
0.50 1.48117
1.00 1.48102
1.50 1.48099
2.00 1.48128
2.50 1.48182
3.00 1.48249
3.50 1.48324
4.00 1.48359
4.50 1.48403
5.00 1.48458
5.50 1.48522
6.00 1.48597
6.50 1.48741
7.00 1.48894
7.50 1.49057
8.00 1.49053
8.50 1.49026
9.00 1.49007
9.50 1.48997
10.00 1.48995
10.50 1.49002
11.00 1.49077
11.50 1.49205
12.00 1.49342
12.50 1.49328
13.00 1.49296
13.50 1.49271
14.00 1.49148
14.50 1.48962
15.00 1.48781
15.50 1.48606
16.00 1.48444
16.50 1.48376
17.00 1.48313
17.50 1.48256
18.00 1.48204
18.50 1.47915
19.00 1.47317
19.50 1.46723
20.00 1.46131
20.50 1.45543
21.00 1.44958
21.50 1.44488
22.00 1.44249
22.50 1.44011
23.00 1.43773
23.50 1.43154
24.00 1.42326
24.50 1.41498
25.00 1.40607
25.50 1.39432
26.00 1.38255
26.50 1.37075
27.00 1.35894
27.50 1.34711
28.00 1.33526
28.50 1.32403
29.00 1.31292
29.50 1.30179
30.00 1.28890
30.50 1.27478
31.00 1.26065
31.50 1.24625
32.00 1.22883
32.50 1.21137
33.00 1.19387
33.50 1.17633
34.00 1.15876
34.50 1.14059
35.00 1.12213
35.50 1.10364
36.00 1.08446
36.50 1.06303
37.00 1.04156
37.50 1.02006
38.00 0.99853
38.50 0.97707
39.00 0.95508
39.50 0.93312
40.00 0.91126
40.50 0.88938
41.00 0.86738
41.50 0.84556
42.00 0.82380
42.50 0.80202
43.00 0.78024
43.50 0.75919
44.00 0.73814
44.50 0.71710
45.00 0.69613
45.50 0.67710
46.00 0.65812
46.50 0.63917
47.00 0.62022
47.50 0.60309
48.00 0.58710
48.50 0.57110
49.00 0.55511
49.50 0.53912
50.00 0.52545
50.50 0.51236
51.00 0.49925
51.50 0.48613
52.00 0.47298
52.50 0.45982
53.00 0.44517
53.50 0.43235
54.00 0.42059
54.50 0.40877
55.00 0.39690
55.50 0.38497
56.00 0.37286
56.50 0.36056
57.00 0.34822
57.50 0.33582
58.00 0.32257
58.50 0.30883
59.00 0.29504
59.50 0.28119
60.00 0.26730
60.50 0.25359
61.00 0.24001
61.50 0.22638
62.00 0.21274
62.50 0.19916
63.00 0.18553
63.50 0.17245
64.00 0.16300
64.50 0.15355
65.00 0.14409
65.50 0.13462
66.00 0.12515
66.50 0.11567
67.00 0.10724
67.50 0.09964
68.00 0.09202
68.50 0.08439
69.00 0.07697
69.50 0.07249
70.00 0.06800
70.50 0.06352
71.00 0.05904
71.50 0.05457
72.00 0.05058
72.50 0.04665
73.00 0.04273
73.50 0.03880
74.00 0.03625
74.50 0.03431
75.00 0.03236
75.50 0.03042
76.00 0.02848
76.50 0.02652
77.00 0.02445
77.50 0.02237
78.00 0.02030
78.50 0.01849
79.00 0.01754
79.50 0.01660
80.00 0.01565
80.50 0.01471
81.00 0.01376
81.50 0.01282
82.00 0.01187
82.50 0.01093
83.00 0.01029
83.50 0.00987
84.00 0.00945
84.50 0.00903
85.00 0.00861
85.50 0.00820
86.00 0.00779
86.50 0.00738
87.00 0.00715
87.50 0.00698
88.00 0.00683
88.50 0.00667
89.00 0.00651
89.50 0.00635
90.00 0.00620
90.00 0.00620
90.50 0.00635
91.00 0.00651
91.50 0.00667
92.00 0.00683
92.50 0.00698
93.00 0.00715
93.50 0.00738
94.00 0.00779
94.50 0.00820
95.00 0.00861
95.50 0.00903
96.00 0.00945
96.50 0.00987
97.00 0.01029
97.50 0.01093
98.00 0.01187
98.50 0.01282
99.00 0.01376
99.50 0.01471
100.00 0.01565
100.50 0.01660
101.00 0.01754
101.50 0.01849
102.00 0.02030
102.50 0.02237
103.00 0.02445
103.50 0.02652
104.00 0.02848
104.50 0.03042
105.00 0.03236
105.50 0.03431
106.00 0.03625
106.50 0.03880
107.00 0.04273
107.50 0.04665
108.00 0.05058
108.50 0.05457
109.00 0.05904
109.50 0.06352
110.00 0.06800
110.50 0.07249
111.00 0.07697
111.50 0.08439
112.00 0.09202
112.50 0.09964
113.00 0.10724
113.50 0.11567
114.00 0.12515
114.50 0.13462
115.00 0.14409
115.50 0.15355
116.00 0.16300
116.50 0.17245
117.00 0.18553
117.50 0.19916
118.00 0.21274
118.50 0.22638
119.00 0.24001
119.50 0.25359
120.00 0.26730
120.50 0.28119
121.00 0.29504
121.50 0.30883
122.00 0.32257
122.50 0.33582
123.00 0.34822
123.50 0.36056
124.00 0.37286
124.50 0.38497
125.00 0.39690
125.50 0.40877
126.00 0.42059
126.50 0.43235
127.00 0.44517
127.50 0.45982
128.00 0.47298
128.50 0.48613
129.00 0.49925
129.50 0.51236
130.00 0.52545
130.50 0.53912
131.00 0.55511
131.50 0.57110
132.00 0.58710
132.50 0.60309
133.00 0.62022
133.50 0.63917
134.00 0.65812
134.50 0.67710
135.00 0.69613
135.50 0.71710
136.00 0.73814
136.50 0.75919
137.00 0.78024
137.50 0.80202
138.00 0.82380
138.50 0.84556
139.00 0.86738
139.50 0.88938
140.00 0.91126
140.50 0.93312
141.00 0.95508
141.50 0.97707
142.00 0.99853
142.50 1.02006
143.00 1.04156
143.50 1.06303
144.00 1.08446
144.50 1.10364
145.00 1.12213
145.50 1.14059
146.00 1.15876
146.50 1.17633
147.00 1.19387
147.50 1.21137
148.00 1.22883
148.50 1.24625
149.00 1.26065
149.50 1.27478
150.00 1.28890
150.50 1.30179
151.00 1.31292
151.50 1.32403
152.00 1.33526
152.50 1.34711
153.00 1.35894
153.50 1.37075
154.00 1.38255
154.50 1.39432
155.00 1.40607
155.50 1.41498
156.00 1.42326
156.50 1.43154
157.00 1.43773
157.50 1.44011
158.00 1.44249
158.50 1.44488
159.00 1.44958
159.50 1.45543
160.00 1.46131
160.50 1.46723
161.00 1.47317
161.50 1.47915
162.00 1.48204
162.50 1.48256
163.00 1.48313
163.50 1.48376
164.00 1.48444
164.50 1.48606
165.00 1.48781
165.50 1.48962
166.00 1.49148
166.50 1.49271
167.00 1.49296
167.50 1.49328
168.00 1.49342
168.50 1.49205
169.00 1.49077
169.50 1.49002
170.00 1.48995
170.50 1.48997
171.00 1.49007
171.50 1.49026
172.00 1.49053
172.50 1.49057
173.00 1.48894
173.50 1.48741
174.00 1.48597
174.50 1.48522
175.00 1.48458
175.50 1.48403
176.00 1.48359
176.50 1.48324
177.00 1.48249
177.50 1.48182
178.00 1.48128
178.50 1.48099
179.00 1.48102
179.50 1.48117
180.00 1.48142
180.00 1.48142
180.50 1.48117
181.00 1.48102
181.50 1.48099
182.00 1.48128
182.50 1.48182
183.00 1.48249
183.50 1.48324
184.00 1.48359
184.50 1.48403
185.00 1.48458
185.50 1.48522
186.00 1.48597
186.50 1.48741
187.00 1.48894
187.50 1.49057
188.00 1.49053
188.50 1.49026
189.00 1.49007
189.50 1.48997
190.00 1.48995
190.50 1.49002
191.00 1.49077
191.50 1.49205
192.00 1.49342
192.50 1.49328
193.00 1.49296
193.50 1.49271
194.00 1.49148
194.50 1.48962
195.00 1.48781
195.50 1.48606
196.00 1.48444
196.50 1.48376
197.00 1.48313
197.50 1.48256
198.00 1.48204
198.50 1.47915
199.00 1.47317
199.50 1.46723
200.00 1.46131
200.50 1.45543
201.00 1.44958
201.50 1.44488
202.00 1.44249
202.50 1.44011
203.00 1.43773
203.50 1.43154
204.00 1.42326
204.50 1.41498
205.00 1.40607
205.50 1.39432
206.00 1.38255
206.50 1.37075
207.00 1.35894
207.50 1.34711
208.00 1.33526
208.50 1.32403
209.00 1.31292
209.50 1.30179
210.00 1.28890
210.50 1.27478
211.00 1.26065
211.50 1.24625
212.00 1.22883
212.50 1.21137
213.00 1.19387
213.50 1.17633
214.00 1.15876
214.50 1.14059
215.00 1.12213
215.50 1.10364
216.00 1.08446
216.50 1.06303
217.00 1.04156
217.50 1.02006
218.00 0.99853
218.50 0.97707
219.00 0.95508
219.50 0.93312
220.00 0.91126
220.50 0.88938
221.00 0.86738
221.50 0.84556
222.00 0.82380
222.50 0.80202
223.00 0.78024
223.50 0.75919
224.00 0.73814
224.50 0.71710
225.00 0.69613
225.50 0.67710
226.00 0.65812
226.50 0.63917
227.00 0.62022
227.50 0.60309
228.00 0.58710
228.50 0.57110
229.00 0.55511
229.50 0.53912
230.00 0.52545
230.50 0.51236
231.00 0.49925
231.50 0.48613
232.00 0.47298
232.50 0.45982
233.00 0.44517
233.50 0.43235
234.00 0.42059
234.50 0.40877
235.00 0.39690
235.50 0.38497
236.00 0.37286
236.50 0.36056
237.00 0.34822
237.50 0.33582
238.00 0.32257
238.50 0.30883
239.00 0.29504
239.50 0.28119
240.00 0.26730
240.50 0.25359
241.00 0.24001
241.50 0.22638
242.00 0.21274
242.50 0.19916
243.00 0.18553
243.50 0.17245
244.00 0.16300
244.50 0.15355
245.00 0.14409
245.50 0.13462
246.00 0.12515
246.50 0.11567
247.00 0.10724
247.50 0.09964
248.00 0.09202
248.50 0.08439
249.00 0.07697
249.50 0.07249
250.00 0.06800
250.50 0.06352
251.00 0.05904
251.50 0.05457
252.00 0.05058
252.50 0.04665
253.00 0.04273
253.50 0.03880
254.00 0.03625
254.50 0.03431
255.00 0.03236
255.50 0.03042
256.00 0.02848
256.50 0.02652
257.00 0.02445
257.50 0.02237
258.00 0.02030
258.50 0.01849
259.00 0.01754
259.50 0.01660
260.00 0.01565
260.50 0.01471
261.00 0.01376
261.50 0.01282
262.00 0.01187
262.50 0.01093
263.00 0.01029
263.50 0.00987
264.00 0.00945
264.50 0.00903
265.00 0.00861
265.50 0.00820
266.00 0.00779
266.50 0.00738
267.00 0.00715
267.50 0.00698
268.00 0.00683
268.50 0.00667
269.00 0.00651
269.50 0.00635
270.00 0.00620
270.00 0.00620
270.50 0.00635
271.00 0.00651
271.50 0.00667
272.00 0.00683
272.50 0.00698
273.00 0.00715
273.50 0.00738
274.00 0.00779
274.50 0.00820
275.00 0.00861
275.50 0.00903
276.00 0.00945
276.50 0.00987
277.00 0.01029
277.50 0.01093
278.00 0.01187
278.50 0.01282
279.00 0.01376
279.50 0.01471
280.00 0.01565
280.50 0.01660
281.00 0.01754
281.50 0.01849
282.00 0.02030
282.50 0.02237
283.00 0.02445
283.50 0.02652
284.00 0.02848
284.50 0.03042
285.00 0.03236
285.50 0.03431
286.00 0.03625
286.50 0.03880
287.00 0.04273
287.50 0.04665
288.00 0.05058
288.50 0.05457
289.00 0.05904
289.50 0.06352
290.00 0.06800
290.50 0.07249
291.00 0.07697
291.50 0.08439
292.00 0.09202
292.50 0.09964
293.00 0.10724
293.50 0.11567
294.00 0.12515
294.50 0.13462
295.00 0.14409
295.50 0.15355
296.00 0.16300
296.50 0.17245
297.00 0.18553
297.50 0.19916
298.00 0.21274
298.50 0.22638
299.00 0.24001
299.50 0.25359
300.00 0.26730
300.50 0.28119
301.00 0.29504
301.50 0.30883
302.00 0.32257
302.50 0.33582
303.00 0.34822
303.50 0.36056
304.00 0.37286
304.50 0.38497
305.00 0.39690
305.50 0.40877
306.00 0.42059
306.50 0.43235
307.00 0.44517
307.50 0.45982
308.00 0.47298
308.50 0.48613
309.00 0.49925
309.50 0.51236
310.00 0.52545
310.50 0.53912
311.00 0.55511
311.50 0.57110
312.00 0.58710
312.50 0.60309
313.00 0.62022
313.50 0.63917
314.00 0.65812
314.50 0.67710
315.00 0.69613
315.50 0.71710
316.00 0.73814
316.50 0.75919
317.00 0.78024
317.50 0.80202
318.00 0.82380
318.50 0.84556
319.00 0.86738
319.50 0.88938
320.00 0.91126
320.50 0.93312
321.00 0.95508
321.50 0.97707
322.00 0.99853
322.50 1.02006
323.00 1.04156
323.50 1.06303
324.00 1.08446
324.50 1.10364
325.00 1.12213
325.50 1.14059
326.00 1.15876
326.50 1.17633
327.00 1.19387
327.50 1.21137
328.00 1.22883
328.50 1.24625
329.00 1.26065
329.50 1.27478
330.00 1.28890
330.50 1.30179
331.00 1.31292
331.50 1.32403
332.00 1.33526
332.50 1.34711
333.00 1.35894
333.50 1.37075
334.00 1.38255
334.50 1.39432
335.00 1.40607
335.50 1.41498
336.00 1.42326
336.50 1.43154
337.00 1.43773
337.50 1.44011
338.00 1.44249
338.50 1.44488
339.00 1.44958
339.50 1.45543
340.00 1.46131
340.50 1.46723
341.00 1.47317
341.50 1.47915
342.00 1.48204
342.50 1.48256
343.00 1.48313
343.50 1.48376
344.00 1.48444
344.50 1.48606
345.00 1.48781
345.50 1.48962
346.00 1.49148
346.50 1.49271
347.00 1.49296
347.50 1.49328
348.00 1.49342
348.50 1.49205
349.00 1.49077
349.50 1.49002
350.00 1.48995
350.50 1.48997
351.00 1.49007
351.50 1.49026
352.00 1.49053
352.50 1.49057
353.00 1.48894
353.50 1.48741
354.00 1.48597
354.50 1.48522
355.00 1.48458
355.50 1.48403
356.00 1.48359
356.50 1.48324
357.00 1.48249
357.50 1.48182
358.00 1.48128
358.50 1.48099
359.00 1.48102
359.50 1.48117
360.00 1.48142
