phi[deg] B[T]
0.00 2.02796
0.50 2.02726
1.00 2.02669
1.50 2.02637
2.00 2.02671
2.50 2.02650
3.00 2.02560
3.50 2.02529
4.00 2.02530
4.50 2.02546
5.00 2.02497
5.50 2.02424
6.00 2.02365
6.50 2.02319
7.00 2.02286
7.50 2.02277
8.00 2.02145
8.50 2.02065
9.00 2.01998
9.50 2.01944
10.00 2.01857
10.50 2.01675
11.00 2.01566
11.50 2.01468
12.00 2.01345
12.50 2.01161
13.00 2.00906
13.50 2.00660
14.00 2.00394
14.50 2.00068
15.00 1.99753
15.50 1.99393
16.00 1.98848
16.50 1.98318
17.00 1.97968
17.50 1.97608
18.00 1.97060
18.50 1.96520
19.00 1.95952
19.50 1.95358
20.00 1.94600
20.50 1.93539
21.00 1.92493
21.50 1.91778
22.00 1.91065
22.50 1.90355
23.00 1.89253
23.50 1.87911
24.00 1.86570
24.50 1.85220
25.00 1.83868
25.50 1.82326
26.00 1.80771
26.50 1.79219
27.00 1.77670
27.50 1.75945
28.00 1.74038
28.50 1.72128
29.00 1.70207
29.50 1.68288
30.00 1.66372
30.50 1.64319
31.00 1.62314
31.50 1.60347
32.00 1.58379
32.50 1.56407
33.00 1.54118
33.50 1.51828
34.00 1.49539
34.50 1.47188
35.00 1.44754
35.50 1.42301
36.00 1.39839
36.50 1.37375
37.00 1.34867
37.50 1.32325
38.00 1.29842
38.50 1.27356
39.00 1.24789
39.50 1.22175
40.00 1.19651
40.50 1.17150
41.00 1.14647
41.50 1.12057
42.00 1.09394
42.50 1.06773
43.00 1.04368
43.50 1.01935
44.00 0.99455
44.50 0.96962
45.00 0.94431
45.50 0.91850
46.00 0.89423
46.50 0.87027
47.00 0.84608
47.50 0.82179
48.00 0.79708
48.50 0.77228
49.00 0.74846
49.50 0.72459
50.00 0.70066
50.50 0.67658
51.00 0.65323
51.50 0.63100
52.00 0.60870
52.50 0.58635
53.00 0.56393
53.50 0.54101
54.00 0.51765
54.50 0.49549
55.00 0.47503
55.50 0.45448
56.00 0.43386
56.50 0.41317
57.00 0.39287
57.50 0.37332
58.00 0.35381
58.50 0.33456
59.00 0.31525
59.50 0.29594
60.00 0.27679
60.50 0.25757
61.00 0.24034
61.50 0.22562
62.00 0.21085
62.50 0.19605
63.00 0.18121
63.50 0.16621
64.00 0.15187
64.50 0.14161
65.00 0.13134
65.50 0.12107
66.00 0.11078
66.50 0.10050
67.00 0.09213
67.50 0.08597
68.00 0.07982
68.50 0.07367
69.00 0.06751
69.50 0.06137
70.00 0.05564
70.50 0.05139
71.00 0.04714
71.50 0.04362
72.00 0.04037
72.50 0.03711
73.00 0.03386
73.50 0.03062
74.00 0.02842
74.50 0.02622
75.00 0.02403
75.50 0.02236
76.00 0.02070
76.50 0.01903
77.00 0.01737
77.50 0.01585
78.00 0.01470
78.50 0.01356
79.00 0.01264
79.50 0.01185
80.00 0.01105
80.50 0.01026
81.00 0.00947
81.50 0.00868
82.00 0.00798
82.50 0.00743
83.00 0.00705
83.50 0.00667
84.00 0.00626
84.50 0.00586
85.00 0.00545
85.50 0.00518
86.00 0.00500
86.50 0.00481
87.00 0.00462
87.50 0.00444
88.00 0.00429
88.50 0.00421
89.00 0.00413
89.50 0.00405
90.00 0.00397
90.00 0.00397
90.50 0.00405
91.00 0.00413
91.50 0.00421
92.00 0.00429
92.50 0.00444
93.00 0.00462
93.50 0.00481
94.00 0.00500
94.50 0.00518
95.00 0.00545
95.50 0.00586
96.00 0.00626
96.50 0.00667
97.00 0.00705
97.50 0.00743
98.00 0.00798
98.50 0.00868
99.00 0.00947
99.50 0.01026
100.00 0.01105
100.50 0.01185
101.00 0.01264
101.50 0.01356
102.00 0.01470
102.50 0.01585
103.00 0.01737
103.50 0.01903
104.00 0.02070
104.50 0.02236
105.00 0.02403
105.50 0.02622
106.00 0.02842
106.50 0.03062
107.00 0.03386
107.50 0.03711
108.00 0.04037
108.50 0.04362
109.00 0.04714
109.50 0.05139
110.00 0.05564
110.50 0.06137
111.00 0.06751
111.50 0.07367
112.00 0.07982
112.50 0.08597
113.00 0.09213
113.50 0.10050
114.00 0.11078
114.50 0.12107
115.00 0.13134
115.50 0.14161
116.00 0.15187
116.50 0.16621
117.00 0.18121
117.50 0.19605
118.00 0.21085
118.50 0.22562
119.00 0.24034
119.50 0.25757
120.00 0.27679
120.50 0.29594
121.00 0.31525
121.50 0.33456
122.00 0.35381
122.50 0.37332
123.00 0.39287
123.50 0.41317
124.00 0.43386
124.50 0.45448
125.00 0.47503
125.50 0.49549
126.00 0.51765
126.50 0.54101
127.00 0.56393
127.50 0.58635
128.00 0.60870
128.50 0.63100
129.00 0.65323
129.50 0.67658
130.00 0.70066
130.50 0.72459
131.00 0.74846
131.50 0.77228
132.00 0.79708
132.50 0.82179
133.00 0.84608
133.50 0.87027
134.00 0.89423
134.50 0.91850
135.00 0.94431
135.50 0.96962
136.00 0.99455
136.50 1.01935
137.00 1.04368
137.50 1.06773
138.00 1.09394
138.50 1.12057
139.00 1.14647
139.50 1.17150
140.00 1.19651
140.50 1.22175
141.00 1.24789
141.50 1.27356
142.00 1.29842
142.50 1.32325
143.00 1.34867
143.50 1.37375
144.00 1.39839
144.50 1.42301
145.00 1.44754
145.50 1.47188
146.00 1.49539
146.50 1.51828
147.00 1.54118
147.50 1.56407
148.00 1.58379
148.50 1.60347
149.00 1.62314
149.50 1.64319
150.00 1.66372
150.50 1.68288
151.00 1.70207
151.50 1.72128
152.00 1.74038
152.50 1.75945
153.00 1.77670
153.50 1.79219
154.00 1.80771
154.50 1.82326
155.00 1.83868
155.50 1.85220
156.00 1.86570
156.50 1.87911
157.00 1.89253
157.50 1.90355
158.00 1.91065
158.50 1.91778
159.00 1.92493
159.50 1.93539
160.00 1.94600
160.50 1.95358
161.00 1.95952
161.50 1.96520
162.00 1.97060
162.50 1.97608
163.00 1.97968
163.50 1.98318
164.00 1.98848
164.50 1.99393
165.00 1.99753
165.50 2.00068
166.00 2.00394
166.50 2.00660
167.00 2.00906
167.50 2.01161
168.00 2.01345
168.50 2.01468
169.00 2.01566
169.50 2.01675
170.00 2.01857
170.50 2.01944
171.00 2.01998
171.50 2.02065
172.00 2.02145
172.50 2.02277
173.00 2.02286
173.50 2.02319
174.00 2.02365
174.50 2.02424
175.00 2.02497
175.50 2.02546
176.00 2.02530
176.50 2.02529
177.00 2.02560
177.50 2.02650
178.00 2.02671
178.50 2.02637
179.00 2.02669
179.50 2.02726
180.00 2.02796
180.00 2.02796
180.50 2.02726
181.00 2.02669
181.50 2.02637
182.00 2.02671
182.50 2.02650
183.00 2.02560
183.50 2.02529
184.00 2.02530
184.50 2.02546
185.00 2.02497
185.50 2.02424
186.00 2.02365
186.50 2.02319
187.00 2.02286
187.50 2.02277
188.00 2.02145
188.50 2.02065
189.00 2.01998
189.50 2.01944
190.00 2.01857
190.50 2.01675
191.00 2.01566
191.50 2.01468
192.00 2.01345
192.50 2.01161
193.00 2.00906
193.50 2.00660
194.00 2.00394
194.50 2.00068
195.00 1.99753
195.50 1.99393
196.00 1.98848
196.50 1.98318
197.00 1.97968
197.50 1.97608
198.00 1.97060
198.50 1.96520
199.00 1.95952
199.50 1.95358
200.00 1.94600
200.50 1.93539
201.00 1.92493
201.50 1.91778
202.00 1.91065
202.50 1.90355
203.00 1.89253
203.50 1.87911
204.00 1.86570
204.50 1.85220
205.00 1.83868
205.50 1.82326
206.00 1.80771
206.50 1.79219
207.00 1.77670
207.50 1.75945
208.00 1.74038
208.50 1.72128
209.00 1.70207
209.50 1.68288
210.00 1.66372
210.50 1.64319
211.00 1.62314
211.50 1.60347
212.00 1.58379
212.50 1.56407
213.00 1.54118
213.50 1.51828
214.00 1.49539
214.50 1.47188
215.00 1.44754
215.50 1.42301
216.00 1.39839
216.50 1.37375
217.00 1.34867
217.50 1.32325
218.00 1.29842
218.50 1.27356
219.00 1.24789
219.50 1.22175
220.00 1.19651
220.50 1.17150
221.00 1.14647
221.50 1.12057
222.00 1.09394
222.50 1.06773
223.00 1.04368
223.50 1.01935
224.00 0.99455
224.50 0.96962
225.00 0.94431
225.50 0.91850
226.00 0.89423
226.50 0.87027
227.00 0.84608
227.50 0.82179
228.00 0.79708
228.50 0.77228
229.00 0.74846
229.50 0.72459
230.00 0.70066
230.50 0.67658
231.00 0.65323
231.50 0.63100
232.00 0.60870
232.50 0.58635
233.00 0.56393
233.50 0.54101
234.00 0.51765
234.50 0.49549
235.00 0.47503
235.50 0.45448
236.00 0.43386
236.50 0.41317
237.00 0.39287
237.50 0.37332
238.00 0.35381
238.50 0.33456
239.00 0.31525
239.50 0.29594
240.00 0.27679
240.50 0.25757
241.00 0.24034
241.50 0.22562
242.00 0.21085
242.50 0.19605
243.00 0.18121
243.50 0.16621
244.00 0.15187
244.50 0.14161
245.00 0.13134
245.50 0.12107
246.00 0.11078
246.50 0.10050
247.00 0.09213
247.50 0.08597
248.00 0.07982
248.50 0.07367
249.00 0.06751
249.50 0.06137
250.00 0.05564
250.50 0.05139
251.00 0.04714
251.50 0.04362
252.00 0.04037
252.50 0.03711
253.00 0.03386
253.50 0.03062
254.00 0.02842
254.50 0.02622
255.00 0.02403
255.50 0.02236
256.00 0.02070
256.50 0.01903
257.00 0.01737
257.50 0.01585
258.00 0.01470
258.50 0.01356
259.00 0.01264
259.50 0.01185
260.00 0.01105
260.50 0.01026
261.00 0.00947
261.50 0.00868
262.00 0.00798
262.50 0.00743
263.00 0.00705
263.50 0.00667
264.00 0.00626
264.50 0.00586
265.00 0.00545
265.50 0.00518
266.00 0.00500
266.50 0.00481
267.00 0.00462
267.50 0.00444
268.00 0.00429
268.50 0.00421
269.00 0.00413
269.50 0.00405
270.00 0.00397
270.00 0.00397
270.50 0.00405
271.00 0.00413
271.50 0.00421
272.00 0.00429
272.50 0.00444
273.00 0.00462
273.50 0.00481
274.00 0.00500
274.50 0.00518
275.00 0.00545
275.50 0.00586
276.00 0.00626
276.50 0.00667
277.00 0.00705
277.50 0.00743
278.00 0.00798
278.50 0.00868
279.00 0.00947
279.50 0.01026
280.00 0.01105
280.50 0.01185
281.00 0.01264
281.50 0.01356
282.00 0.01470
282.50 0.01585
283.00 0.01737
283.50 0.01903
284.00 0.02070
284.50 0.02236
285.00 0.02403
285.50 0.02622
286.00 0.02842
286.50 0.03062
287.00 0.03386
287.50 0.03711
288.00 0.04037
288.50 0.04362
289.00 0.04714
289.50 0.05139
290.00 0.05564
290.50 0.06137
291.00 0.06751
291.50 0.07367
292.00 0.07982
292.50 0.08597
293.00 0.09213
293.50 0.10050
294.00 0.11078
294.50 0.12107
295.00 0.13134
295.50 0.14161
296.00 0.15187
296.50 0.16621
297.00 0.18121
297.50 0.19605
298.00 0.21085
298.50 0.22562
299.00 0.24034
299.50 0.25757
300.00 0.27679
300.50 0.29594
301.00 0.31525
301.50 0.33456
302.00 0.35381
302.50 0.37332
303.00 0.39287
303.50 0.41317
304.00 0.43386
304.50 0.45448
305.00 0.47503
305.50 0.49549
306.00 0.51765
306.50 0.54101
307.00 0.56393
307.50 0.58635
308.00 0.60870
308.50 0.63100
309.00 0.65323
309.50 0.67658
310.00 0.70066
310.50 0.72459
311.00 0.74846
311.50 0.77228
312.00 0.79708
312.50 0.82179
313.00 0.84608
313.50 0.87027
314.00 0.89423
314.50 0.91850
315.00 0.94431
315.50 0.96962
316.00 0.99455
316.50 1.01935
317.00 1.04368
317.50 1.06773
318.00 1.09394
318.50 1.12057
319.00 1.14647
319.50 1.17150
320.00 1.19651
320.50 1.22175
321.00 1.24789
321.50 1.27356
322.00 1.29842
322.50 1.32325
323.00 1.34867
323.50 1.37375
324.00 1.39839
324.50 1.42301
325.00 1.44754
325.50 1.47188
326.00 1.49539
326.50 1.51828
327.00 1.54118
327.50 1.56407
328.00 1.58379
328.50 1.60347
329.00 1.62314
329.50 1.64319
330.00 1.66372
330.50 1.68288
331.00 1.70207
331.50 1.72128
332.00 1.74038
332.50 1.75945
333.00 1.77670
333.50 1.79219
334.00 1.80771
334.50 1.82326
335.00 1.83868
335.50 1.85220
336.00 1.86570
336.50 1.87911
337.00 1.89253
337.50 1.90355
338.00 1.91065
338.50 1.91778
339.00 1.92493
339.50 1.93539
340.00 1.94600
340.50 1.95358
341.00 1.95952
341.50 1.96520
342.00 1.97060
342.50 1.97608
343.00 1.97968
343.50 1.98318
344.00 1.98848
344.50 1.99393
345.00 1.99753
345.50 2.00068
346.00 2.00394
346.50 2.00660
347.00 2.00906
347.50 2.01161
348.00 2.01345
348.50 2.01468
349.00 2.01566
349.50 2.01675
350.00 2.01857
350.50 2.01944
351.00 2.01998
351.50 2.02065
352.00 2.02145
352.50 2.02277
353.00 2.02286
353.50 2.02319
354.00 2.02365
354.50 2.02424
355.00 2.02497
355.50 2.02546
356.00 2.02530
356.50 2.02529
357.00 2.02560
357.50 2.02650
358.00 2.02671
358.50 2.02637
359.00 2.02669
359.50 2.02726
360.00 2.02796
