phi[deg] B[T]
0.00 1.48921
0.50 1.48924
1.00 1.48937
1.50 1.48960
2.00 1.48979
2.50 1.48997
3.00 1.49006
3.50 1.49021
4.00 1.49072
4.50 1.49133
5.00 1.49123
5.50 1.49093
6.00 1.49072
6.50 1.49061
7.00 1.49059
7.50 1.49133
8.00 1.49275
8.50 1.49318
9.00 1.49204
9.50 1.49095
10.00 1.48991
10.50 1.48892
11.00 1.48799
11.50 1.48747
12.00 1.48890
12.50 1.49017
13.00 1.48603
13.50 1.48192
14.00 1.47783
14.50 1.47377
15.00 1.47043
15.50 1.46415
16.00 1.45787
16.50 1.45160
17.00 1.44580
17.50 1.44003
18.00 1.43415
18.50 1.42104
19.00 1.40845
19.50 1.39585
20.00 1.38395
20.50 1.37237
21.00 1.36068
21.50 1.34888
22.00 1.33758
22.50 1.31939
23.00 1.29967
23.50 1.27979
24.00 1.25976
24.50 1.23958
25.00 1.21845
25.50 1.19611
26.00 1.17360
26.50 1.15091
27.00 1.12285
27.50 1.09230
28.00 1.06159
28.50 1.03163
29.00 1.00465
29.50 0.97143
30.00 0.93796
30.50 0.90423
31.00 0.87025
31.50 0.83882
32.00 0.79884
32.50 0.75846
33.00 0.71780
33.50 0.67911
34.00 0.64329
34.50 0.60592
35.00 0.56819
35.50 0.53034
36.00 0.49237
36.50 0.45502
37.00 0.41763
37.50 0.38297
38.00 0.35505
38.50 0.32724
39.00 0.29940
39.50 0.27153
40.00 0.24362
40.50 0.21620
41.00 0.19905
41.50 0.18186
42.00 0.16441
42.50 0.14616
43.00 0.13033
43.50 0.11913
44.00 0.10793
44.50 0.09674
45.00 0.08555
45.50 0.07835
46.00 0.07116
46.50 0.06387
47.00 0.05658
47.50 0.05112
48.00 0.04675
48.50 0.04238
49.00 0.03798
49.50 0.03356
50.00 0.03008
50.50 0.02735
51.00 0.02478
51.50 0.02221
52.00 0.01964
52.50 0.01805
53.00 0.01665
53.50 0.01524
54.00 0.01384
54.50 0.01244
55.00 0.01100
55.50 0.00955
56.00 0.00859
56.50 0.00789
57.00 0.00726
57.50 0.00662
58.00 0.00599
58.50 0.00535
59.00 0.00471
59.50 0.00419
60.00 0.00384
60.50 0.00349
61.00 0.00315
61.50 0.00283
62.00 0.00255
62.50 0.00227
63.00 0.00206
63.50 0.00191
64.00 0.00177
64.50 0.00162
65.00 0.00147
65.50 0.00132
66.00 0.00117
66.50 0.00107
67.00 0.00100
67.50 0.00094
68.00 0.00087
68.50 0.00080
69.00 0.00073
69.50 0.00067
70.00 0.00061
70.50 0.00059
71.00 0.00056
71.50 0.00052
72.00 0.00049
72.50 0.00046
73.00 0.00043
73.50 0.00040
74.00 0.00038
74.50 0.00036
75.00 0.00035
75.50 0.00033
76.00 0.00032
76.50 0.00030
77.00 0.00028
77.50 0.00027
78.00 0.00025
78.50 0.00024
79.00 0.00023
79.50 0.00022
80.00 0.00021
80.50 0.00020
81.00 0.00019
81.50 0.00018
82.00 0.00017
82.50 0.00015
83.00 0.00014
83.50 0.00013
84.00 0.00012
84.50 0.00011
85.00 0.00010
85.50 0.00009
86.00 0.00008
86.50 0.00007
87.00 0.00006
87.50 0.00005
88.00 0.00004
88.50 0.00004
89.00 0.00004
89.50 0.00003
90.00 0.00003
90.00 0.00003
90.50 0.00003
91.00 0.00004
91.50 0.00004
92.00 0.00004
92.50 0.00005
93.00 0.00006
93.50 0.00007
94.00 0.00008
94.50 0.00009
95.00 0.00010
95.50 0.00011
96.00 0.00012
96.50 0.00013
97.00 0.00014
97.50 0.00015
98.00 0.00017
98.50 0.00018
99.00 0.00019
99.50 0.00020
100.00 0.00021
100.50 0.00022
101.00 0.00023
101.50 0.00024
102.00 0.00025
102.50 0.00027
103.00 0.00028
103.50 0.00030
104.00 0.00032
104.50 0.00033
105.00 0.00035
105.50 0.00036
106.00 0.00038
106.50 0.00040
107.00 0.00043
107.50 0.00046
108.00 0.00049
108.50 0.00052
109.00 0.00056
109.50 0.00059
110.00 0.00061
110.50 0.00067
111.00 0.00073
111.50 0.00080
112.00 0.00087
112.50 0.00094
113.00 0.00100
113.50 0.00107
114.00 0.00117
114.50 0.00132
115.00 0.00147
115.50 0.00162
116.00 0.00177
116.50 0.00191
117.00 0.00206
117.50 0.00227
118.00 0.00255
118.50 0.00283
119.00 0.00315
119.50 0.00349
120.00 0.00384
120.50 0.00419
121.00 0.00471
121.50 0.00535
122.00 0.00599
122.50 0.00662
123.00 0.00726
123.50 0.00789
124.00 0.00859
124.50 0.00955
125.00 0.01100
125.50 0.01244
126.00 0.01384
126.50 0.01524
127.00 0.01665
127.50 0.01805
128.00 0.01964
128.50 0.02221
129.00 0.02478
129.50 0.02735
130.00 0.03008
130.50 0.03356
131.00 0.03798
131.50 0.04238
132.00 0.04675
132.50 0.05112
133.00 0.05658
133.50 0.06387
134.00 0.07116
134.50 0.07835
135.00 0.08555
135.50 0.09674
136.00 0.10793
136.50 0.11913
137.00 0.13033
137.50 0.14616
138.00 0.16441
138.50 0.18186
139.00 0.19905
139.50 0.21620
140.00 0.24362
140.50 0.27153
141.00 0.29940
141.50 0.32724
142.00 0.35505
142.50 0.38297
143.00 0.41763
143.50 0.45502
144.00 0.49237
144.50 0.53034
145.00 0.56819
145.50 0.60592
146.00 0.64329
146.50 0.67911
147.00 0.71780
147.50 0.75846
148.00 0.79884
148.50 0.83882
149.00 0.87025
149.50 0.90423
150.00 0.93796
150.50 0.97143
151.00 1.00465
151.50 1.03163
152.00 1.06159
152.50 1.09230
153.00 1.12285
153.50 1.15091
154.00 1.17360
154.50 1.19611
155.00 1.21845
155.50 1.23958
156.00 1.25976
156.50 1.27979
157.00 1.29967
157.50 1.31939
158.00 1.33758
158.50 1.34888
159.00 1.36068
159.50 1.37237
160.00 1.38395
160.50 1.39585
161.00 1.40845
161.50 1.42104
162.00 1.43415
162.50 1.44003
163.00 1.44580
163.50 1.45160
164.00 1.45787
164.50 1.46415
165.00 1.47043
165.50 1.47377
166.00 1.47783
166.50 1.48192
167.00 1.48603
167.50 1.49017
168.00 1.48890
168.50 1.48747
169.00 1.48799
169.50 1.48892
170.00 1.48991
170.50 1.49095
171.00 1.49204
171.50 1.49318
172.00 1.49275
172.50 1.49133
173.00 1.49059
173.50 1.49061
174.00 1.49072
174.50 1.49093
175.00 1.49123
175.50 1.49133
176.00 1.49072
176.50 1.49021
177.00 1.49006
177.50 1.48997
178.00 1.48979
178.50 1.48960
179.00 1.48937
179.50 1.48924
180.00 1.48921
180.00 1.48921
180.50 1.48924
181.00 1.48937
181.50 1.48960
182.00 1.48979
182.50 1.48997
183.00 1.49006
183.50 1.49021
184.00 1.49072
184.50 1.49133
185.00 1.49123
185.50 1.49093
186.00 1.49072
186.50 1.49061
187.00 1.49059
187.50 1.49133
188.00 1.49275
188.50 1.49318
189.00 1.49204
189.50 1.49095
190.00 1.48991
190.50 1.48892
191.00 1.48799
191.50 1.48747
192.00 1.48890
192.50 1.49017
193.00 1.48603
193.50 1.48192
194.00 1.47783
194.50 1.47377
195.00 1.47043
195.50 1.46415
196.00 1.45787
196.50 1.45160
197.00 1.44580
197.50 1.44003
198.00 1.43415
198.50 1.42104
199.00 1.40845
199.50 1.39585
200.00 1.38395
200.50 1.37237
201.00 1.36068
201.50 1.34888
202.00 1.33758
202.50 1.31939
203.00 1.29967
203.50 1.27979
204.00 1.25976
204.50 1.23958
205.00 1.21845
205.50 1.19611
206.00 1.17360
206.50 1.15091
207.00 1.12285
207.50 1.09230
208.00 1.06159
208.50 1.03163
209.00 1.00465
209.50 0.97143
210.00 0.93796
210.50 0.90423
211.00 0.87025
211.50 0.83882
212.00 0.79884
212.50 0.75846
213.00 0.71780
213.50 0.67911
214.00 0.64329
214.50 0.60592
215.00 0.56819
215.50 0.53034
216.00 0.49237
216.50 0.45502
217.00 0.41763
217.50 0.38297
218.00 0.35505
218.50 0.32724
219.00 0.29940
219.50 0.27153
220.00 0.24362
220.50 0.21620
221.00 0.19905
221.50 0.18186
222.00 0.16441
222.50 0.14616
223.00 0.13033
223.50 0.11913
224.00 0.10793
224.50 0.09674
225.00 0.08555
225.50 0.07835
226.00 0.07116
226.50 0.06387
227.00 0.05658
227.50 0.05112
228.00 0.04675
228.50 0.04238
229.00 0.03798
229.50 0.03356
230.00 0.03008
230.50 0.02735
231.00 0.02478
231.50 0.02221
232.00 0.01964
232.50 0.01805
233.00 0.01665
233.50 0.01524
234.00 0.01384
234.50 0.01244
235.00 0.01100
235.50 0.00955
236.00 0.00859
236.50 0.00789
237.00 0.00726
237.50 0.00662
238.00 0.00599
238.50 0.00535
239.00 0.00471
239.50 0.00419
240.00 0.00384
240.50 0.00349
241.00 0.00315
241.50 0.00283
242.00 0.00255
242.50 0.00227
243.00 0.00206
243.50 0.00191
244.00 0.00177
244.50 0.00162
245.00 0.00147
245.50 0.00132
246.00 0.00117
246.50 0.00107
247.00 0.00100
247.50 0.00094
248.00 0.00087
248.50 0.00080
249.00 0.00073
249.50 0.00067
250.00 0.00061
250.50 0.00059
251.00 0.00056
251.50 0.00052
252.00 0.00049
252.50 0.00046
253.00 0.00043
253.50 0.00040
254.00 0.00038
254.50 0.00036
255.00 0.00035
255.50 0.00033
256.00 0.00032
256.50 0.00030
257.00 0.00028
257.50 0.00027
258.00 0.00025
258.50 0.00024
259.00 0.00023
259.50 0.00022
260.00 0.00021
260.50 0.00020
261.00 0.00019
261.50 0.00018
262.00 0.00017
262.50 0.00015
263.00 0.00014
263.50 0.00013
264.00 0.00012
264.50 0.00011
265.00 0.00010
265.50 0.00009
266.00 0.00008
266.50 0.00007
267.00 0.00006
267.50 0.00005
268.00 0.00004
268.50 0.00004
269.00 0.00004
269.50 0.00003
270.00 0.00003
270.00 0.00003
270.50 0.00003
271.00 0.00004
271.50 0.00004
272.00 0.00004
272.50 0.00005
273.00 0.00006
273.50 0.00007
274.00 0.00008
274.50 0.00009
275.00 0.00010
275.50 0.00011
276.00 0.00012
276.50 0.00013
277.00 0.00014
277.50 0.00015
278.00 0.00017
278.50 0.00018
279.00 0.00019
279.50 0.00020
280.00 0.00021
280.50 0.00022
281.00 0.00023
281.50 0.00024
282.00 0.00025
282.50 0.00027
283.00 0.00028
283.50 0.00030
284.00 0.00032
284.50 0.00033
285.00 0.00035
285.50 0.00036
286.00 0.00038
286.50 0.00040
287.00 0.00043
287.50 0.00046
288.00 0.00049
288.50 0.00052
289.00 0.00056
289.50 0.00059
290.00 0.00061
290.50 0.00067
291.00 0.00073
291.50 0.00080
292.00 0.00087
292.50 0.00094
293.00 0.00100
293.50 0.00107
294.00 0.00117
294.50 0.00132
295.00 0.00147
295.50 0.00162
296.00 0.00177
296.50 0.00191
297.00 0.00206
297.50 0.00227
298.00 0.00255
298.50 0.00283
299.00 0.00315
299.50 0.00349
300.00 0.00384
300.50 0.00419
301.00 0.00471
301.50 0.00535
302.00 0.00599
302.50 0.00662
303.00 0.00726
303.50 0.00789
304.00 0.00859
304.50 0.00955
305.00 0.01100
305.50 0.01244
306.00 0.01384
306.50 0.01524
307.00 0.01665
307.50 0.01805
308.00 0.01964
308.50 0.02221
309.00 0.02478
309.50 0.02735
310.00 0.03008
310.50 0.03356
311.00 0.03798
311.50 0.04238
312.00 0.04675
312.50 0.05112
313.00 0.05658
313.50 0.06387
314.00 0.07116
314.50 0.07835
315.00 0.08555
315.50 0.09674
316.00 0.10793
316.50 0.11913
317.00 0.13033
317.50 0.14616
318.00 0.16441
318.50 0.18186
319.00 0.19905
319.50 0.21620
320.00 0.24362
320.50 0.27153
321.00 0.29940
321.50 0.32724
322.00 0.35505
322.50 0.38297
323.00 0.41763
323.50 0.45502
324.00 0.49237
324.50 0.53034
325.00 0.56819
325.50 0.60592
326.00 0.64329
326.50 0.67911
327.00 0.71780
327.50 0.75846
328.00 0.79884
328.50 0.83882
329.00 0.87025
329.50 0.90423
330.00 0.93796
330.50 0.97143
331.00 1.00465
331.50 1.03163
332.00 1.06159
332.50 1.09230
333.00 1.12285
333.50 1.15091
334.00 1.17360
334.50 1.19611
335.00 1.21845
335.50 1.23958
336.00 1.25976
336.50 1.27979
337.00 1.29967
337.50 1.31939
338.00 1.33758
338.50 1.34888
339.00 1.36068
339.50 1.37237
340.00 1.38395
340.50 1.39585
341.00 1.40845
341.50 1.42104
342.00 1.43415
342.50 1.44003
343.00 1.44580
343.50 1.45160
344.00 1.45787
344.50 1.46415
345.00 1.47043
345.50 1.47377
346.00 1.47783
346.50 1.48192
347.00 1.48603
347.50 1.49017
348.00 1.48890
348.50 1.48747
349.00 1.48799
349.50 1.48892
350.00 1.48991
350.50 1.49095
351.00 1.49204
351.50 1.49318
352.00 1.49275
352.50 1.49133
353.00 1.49059
353.50 1.49061
354.00 1.49072
354.50 1.49093
355.00 1.49123
355.50 1.49133
356.00 1.49072
356.50 1.49021
357.00 1.49006
357.50 1.48997
358.00 1.48979
358.50 1.48960
359.00 1.48937
359.50 1.48924
360.00 1.48921
