phi[deg] B[T]
0.00 2.03104
0.50 2.03021
1.00 2.02951
1.50 2.02895
2.00 2.02853
2.50 2.02846
3.00 2.02761
3.50 2.02727
4.00 2.02705
4.50 2.02697
5.00 2.02702
5.50 2.02720
6.00 2.02685
6.50 2.02661
7.00 2.02651
7.50 2.02559
8.00 2.02470
8.50 2.02405
9.00 2.02368
9.50 2.02343
10.00 2.02331
10.50 2.02115
11.00 2.01837
11.50 2.01623
12.00 2.01450
12.50 2.01288
13.00 2.01137
13.50 2.00977
14.00 2.00698
14.50 2.00343
15.00 1.99768
15.50 1.99262
16.00 1.98934
16.50 1.98615
17.00 1.98304
17.50 1.97895
18.00 1.97169
18.50 1.96450
19.00 1.95765
19.50 1.95320
20.00 1.94880
20.50 1.94281
21.00 1.93434
21.50 1.92592
22.00 1.91629
22.50 1.90516
23.00 1.89405
23.50 1.88296
24.00 1.86924
24.50 1.85492
25.00 1.84063
25.50 1.82622
26.00 1.80902
26.50 1.79251
27.00 1.77622
27.50 1.75996
28.00 1.74266
28.50 1.72403
29.00 1.70530
29.50 1.68590
30.00 1.66651
30.50 1.64714
31.00 1.62567
31.50 1.60306
32.00 1.58307
32.50 1.56308
33.00 1.54308
33.50 1.52161
34.00 1.49822
34.50 1.47482
35.00 1.45082
35.50 1.42618
36.00 1.40154
36.50 1.37689
37.00 1.35170
37.50 1.32528
38.00 1.29988
38.50 1.27447
39.00 1.24905
39.50 1.22321
40.00 1.19670
40.50 1.17154
41.00 1.14637
41.50 1.12113
42.00 1.09462
42.50 1.06936
43.00 1.04494
43.50 1.02030
44.00 0.99514
44.50 0.96994
45.00 0.94463
45.50 0.91972
46.00 0.89544
46.50 0.87110
47.00 0.84689
47.50 0.82278
48.00 0.79799
48.50 0.77269
49.00 0.74878
49.50 0.72503
50.00 0.70119
50.50 0.67718
51.00 0.65461
51.50 0.63199
52.00 0.60931
52.50 0.58653
53.00 0.56270
53.50 0.54044
54.00 0.51887
54.50 0.49723
55.00 0.47553
55.50 0.45374
56.00 0.43180
56.50 0.41198
57.00 0.39209
57.50 0.37214
58.00 0.35223
58.50 0.33373
59.00 0.31518
59.50 0.29617
60.00 0.27711
60.50 0.25801
61.00 0.23885
61.50 0.22006
62.00 0.20641
62.50 0.19294
63.00 0.17944
63.50 0.16590
64.00 0.15233
64.50 0.13846
65.00 0.12931
65.50 0.12032
66.00 0.11133
66.50 0.10228
67.00 0.09314
67.50 0.08398
68.00 0.07668
68.50 0.07168
69.00 0.06668
69.50 0.06167
70.00 0.05658
70.50 0.05147
71.00 0.04637
71.50 0.04158
72.00 0.03861
72.50 0.03583
73.00 0.03306
73.50 0.03029
74.00 0.02752
74.50 0.02476
75.00 0.02278
75.50 0.02125
76.00 0.01972
76.50 0.01819
77.00 0.01667
77.50 0.01508
78.00 0.01350
78.50 0.01247
79.00 0.01166
79.50 0.01084
80.00 0.01002
80.50 0.00921
81.00 0.00839
81.50 0.00759
82.00 0.00702
82.50 0.00655
83.00 0.00611
83.50 0.00567
84.00 0.00523
84.50 0.00483
85.00 0.00460
85.50 0.00436
86.00 0.00413
86.50 0.00389
87.00 0.00364
87.50 0.00355
88.00 0.00346
88.50 0.00336
89.00 0.00326
89.50 0.00317
90.00 0.00307
90.00 0.00307
90.50 0.00317
91.00 0.00326
91.50 0.00336
92.00 0.00346
92.50 0.00355
93.00 0.00364
93.50 0.00389
94.00 0.00413
94.50 0.00436
95.00 0.00460
95.50 0.00483
96.00 0.00523
96.50 0.00567
97.00 0.00611
97.50 0.00655
98.00 0.00702
98.50 0.00759
99.00 0.00839
99.50 0.00921
100.00 0.01002
100.50 0.01084
101.00 0.01166
101.50 0.01247
102.00 0.01350
102.50 0.01508
103.00 0.01667
103.50 0.01819
104.00 0.01972
104.50 0.02125
105.00 0.02278
105.50 0.02476
106.00 0.02752
106.50 0.03029
107.00 0.03306
107.50 0.03583
108.00 0.03861
108.50 0.04158
109.00 0.04637
109.50 0.05147
110.00 0.05658
110.50 0.06167
111.00 0.06668
111.50 0.07168
112.00 0.07668
112.50 0.08398
113.00 0.09314
113.50 0.10228
114.00 0.11133
114.50 0.12032
115.00 0.12931
115.50 0.13846
116.00 0.15233
116.50 0.16590
117.00 0.17944
117.50 0.19294
118.00 0.20641
118.50 0.22006
119.00 0.23885
119.50 0.25801
120.00 0.27711
120.50 0.29617
121.00 0.31518
121.50 0.33373
122.00 0.35223
122.50 0.37214
123.00 0.39209
123.50 0.41198
124.00 0.43180
124.50 0.45374
125.00 0.47553
125.50 0.49723
126.00 0.51887
126.50 0.54044
127.00 0.56270
127.50 0.58653
128.00 0.60931
128.50 0.63199
129.00 0.65461
129.50 0.67718
130.00 0.70119
130.50 0.72503
131.00 0.74878
131.50 0.77269
132.00 0.79799
132.50 0.82278
133.00 0.84689
133.50 0.87110
134.00 0.89544
134.50 0.91972
135.00 0.94463
135.50 0.96994
136.00 0.99514
136.50 1.02030
137.00 1.04494
137.50 1.06936
138.00 1.09462
138.50 1.12113
139.00 1.14637
139.50 1.17154
140.00 1.19670
140.50 1.22321
141.00 1.24905
141.50 1.27447
142.00 1.29988
142.50 1.32528
143.00 1.35170
143.50 1.37689
144.00 1.40154
144.50 1.42618
145.00 1.45082
145.50 1.47482
146.00 1.49822
146.50 1.52161
147.00 1.54308
147.50 1.56308
148.00 1.58307
148.50 1.60306
149.00 1.62567
149.50 1.64714
150.00 1.66651
150.50 1.68590
151.00 1.70530
151.50 1.72403
152.00 1.74266
152.50 1.75996
153.00 1.77622
153.50 1.79251
154.00 1.80902
154.50 1.82622
155.00 1.84063
155.50 1.85492
156.00 1.86924
156.50 1.88296
157.00 1.89405
157.50 1.90516
158.00 1.91629
158.50 1.92592
159.00 1.93434
159.50 1.94281
160.00 1.94880
160.50 1.95320
161.00 1.95765
161.50 1.96450
162.00 1.97169
162.50 1.97895
163.00 1.98304
163.50 1.98615
164.00 1.98934
164.50 1.99262
165.00 1.99768
165.50 2.00343
166.00 2.00698
166.50 2.00977
167.00 2.01137
167.50 2.01288
168.00 2.01450
168.50 2.01623
169.00 2.01837
169.50 2.02115
170.00 2.02331
170.50 2.02343
171.00 2.02368
171.50 2.02405
172.00 2.02470
172.50 2.02559
173.00 2.02651
173.50 2.02661
174.00 2.02685
174.50 2.02720
175.00 2.02702
175.50 2.02697
176.00 2.02705
176.50 2.02727
177.00 2.02761
177.50 2.02846
178.00 2.02853
178.50 2.02895
179.00 2.02951
179.50 2.03021
180.00 2.03104
180.00 2.03104
180.50 2.03021
181.00 2.02951
181.50 2.02895
182.00 2.02853
182.50 2.02846
183.00 2.02761
183.50 2.02727
184.00 2.02705
184.50 2.02697
185.00 2.02702
185.50 2.02720
186.00 2.02685
186.50 2.02661
187.00 2.02651
187.50 2.02559
188.00 2.02470
188.50 2.02405
189.00 2.02368
189.50 2.02343
190.00 2.02331
190.50 2.02115
191.00 2.01837
191.50 2.01623
192.00 2.01450
192.50 2.01288
193.00 2.01137
193.50 2.00977
194.00 2.00698
194.50 2.00343
195.00 1.99768
195.50 1.99262
196.00 1.98934
196.50 1.98615
197.00 1.98304
197.50 1.97895
198.00 1.97169
198.50 1.96450
199.00 1.95765
199.50 1.95320
200.00 1.94880
200.50 1.94281
201.00 1.93434
201.50 1.92592
202.00 1.91629
202.50 1.90516
203.00 1.89405
203.50 1.88296
204.00 1.86924
204.50 1.85492
205.00 1.84063
205.50 1.82622
206.00 1.80902
206.50 1.79251
207.00 1.77622
207.50 1.75996
208.00 1.74266
208.50 1.72403
209.00 1.70530
209.50 1.68590
210.00 1.66651
210.50 1.64714
211.00 1.62567
211.50 1.60306
212.00 1.58307
212.50 1.56308
213.00 1.54308
213.50 1.52161
214.00 1.49822
214.50 1.47482
215.00 1.45082
215.50 1.42618
216.00 1.40154
216.50 1.37689
217.00 1.35170
217.50 1.32528
218.00 1.29988
218.50 1.27447
219.00 1.24905
219.50 1.22321
220.00 1.19670
220.50 1.17154
221.00 1.14637
221.50 1.12113
222.00 1.09462
222.50 1.06936
223.00 1.04494
223.50 1.02030
224.00 0.99514
224.50 0.96994
225.00 0.94463
225.50 0.91972
226.00 0.89544
226.50 0.87110
227.00 0.84689
227.50 0.82278
228.00 0.79799
228.50 0.77269
229.00 0.74878
229.50 0.72503
230.00 0.70119
230.50 0.67718
231.00 0.65461
231.50 0.63199
232.00 0.60931
232.50 0.58653
233.00 0.56270
233.50 0.54044
234.00 0.51887
234.50 0.49723
235.00 0.47553
235.50 0.45374
236.00 0.43180
236.50 0.41198
237.00 0.39209
237.50 0.37214
238.00 0.35223
238.50 0.33373
239.00 0.31518
239.50 0.29617
240.00 0.27711
240.50 0.25801
241.00 0.23885
241.50 0.22006
242.00 0.20641
242.50 0.19294
243.00 0.17944
243.50 0.16590
244.00 0.15233
244.50 0.13846
245.00 0.12931
245.50 0.12032
246.00 0.11133
246.50 0.10228
247.00 0.09314
247.50 0.08398
248.00 0.07668
248.50 0.07168
249.00 0.06668
249.50 0.06167
250.00 0.05658
250.50 0.05147
251.00 0.04637
251.50 0.04158
252.00 0.03861
252.50 0.03583
253.00 0.03306
253.50 0.03029
254.00 0.02752
254.50 0.02476
255.00 0.02278
255.50 0.02125
256.00 0.01972
256.50 0.01819
257.00 0.01667
257.50 0.01508
258.00 0.01350
258.50 0.01247
259.00 0.01166
259.50 0.01084
260.00 0.01002
260.50 0.00921
261.00 0.00839
261.50 0.00759
262.00 0.00702
262.50 0.00655
263.00 0.00611
263.50 0.00567
264.00 0.00523
264.50 0.00483
265.00 0.00460
265.50 0.00436
266.00 0.00413
266.50 0.00389
267.00 0.00364
267.50 0.00355
268.00 0.00346
268.50 0.00336
269.00 0.00326
269.50 0.00317
270.00 0.00307
270.00 0.00307
270.50 0.00317
271.00 0.00326
271.50 0.00336
272.00 0.00346
272.50 0.00355
273.00 0.00364
273.50 0.00389
274.00 0.00413
274.50 0.00436
275.00 0.00460
275.50 0.00483
276.00 0.00523
276.50 0.00567
277.00 0.00611
277.50 0.00655
278.00 0.00702
278.50 0.00759
279.00 0.00839
279.50 0.00921
280.00 0.01002
280.50 0.01084
281.00 0.01166
281.50 0.01247
282.00 0.01350
282.50 0.01508
283.00 0.01667
283.50 0.01819
284.00 0.01972
284.50 0.02125
285.00 0.02278
285.50 0.02476
286.00 0.02752
286.50 0.03029
287.00 0.03306
287.50 0.03583
288.00 0.03861
288.50 0.04158
289.00 0.04637
289.50 0.05147
290.00 0.05658
290.50 0.06167
291.00 0.06668
291.50 0.07168
292.00 0.07668
292.50 0.08398
293.00 0.09314
293.50 0.10228
294.00 0.11133
294.50 0.12032
295.00 0.12931
295.50 0.13846
296.00 0.15233
296.50 0.16590
297.00 0.17944
297.50 0.19294
298.00 0.20641
298.50 0.22006
299.00 0.23885
299.50 0.25801
300.00 0.27711
300.50 0.29617
301.00 0.31518
301.50 0.33373
302.00 0.35223
302.50 0.37214
303.00 0.39209
303.50 0.41198
304.00 0.43180
304.50 0.45374
305.00 0.47553
305.50 0.49723
306.00 0.51887
306.50 0.54044
307.00 0.56270
307.50 0.58653
308.00 0.60931
308.50 0.63199
309.00 0.65461
309.50 0.67718
310.00 0.70119
310.50 0.72503
311.00 0.74878
311.50 0.77269
312.00 0.79799
312.50 0.82278
313.00 0.84689
313.50 0.87110
314.00 0.89544
314.50 0.91972
315.00 0.94463
315.50 0.96994
316.00 0.99514
316.50 1.02030
317.00 1.04494
317.50 1.06936
318.00 1.09462
318.50 1.12113
319.00 1.14637
319.50 1.17154
320.00 1.19670
320.50 1.22321
321.00 1.24905
321.50 1.27447
322.00 1.29988
322.50 1.32528
323.00 1.35170
323.50 1.37689
324.00 1.40154
324.50 1.42618
325.00 1.45082
325.50 1.47482
326.00 1.49822
326.50 1.52161
327.00 1.54308
327.50 1.56308
328.00 1.58307
328.50 1.60306
329.00 1.62567
329.50 1.64714
330.00 1.66651
330.50 1.68590
331.00 1.70530
331.50 1.72403
332.00 1.74266
332.50 1.75996
333.00 1.77622
333.50 1.79251
334.00 1.80902
334.50 1.82622
335.00 1.84063
335.50 1.85492
336.00 1.86924
336.50 1.88296
337.00 1.89405
337.50 1.90516
338.00 1.91629
338.50 1.92592
339.00 1.93434
339.50 1.94281
340.00 1.94880
340.50 1.95320
341.00 1.95765
341.50 1.96450
342.00 1.97169
342.50 1.97895
343.00 1.98304
343.50 1.98615
344.00 1.98934
344.50 1.99262
345.00 1.99768
345.50 2.00343
346.00 2.00698
346.50 2.00977
347.00 2.01137
347.50 2.01288
348.00 2.01450
348.50 2.01623
349.00 2.01837
349.50 2.02115
350.00 2.02331
350.50 2.02343
351.00 2.02368
351.50 2.02405
352.00 2.02470
352.50 2.02559
353.00 2.02651
353.50 2.02661
354.00 2.02685
354.50 2.02720
355.00 2.02702
355.50 2.02697
356.00 2.02705
356.50 2.02727
357.00 2.02761
357.50 2.02846
358.00 2.02853
358.50 2.02895
359.00 2.02951
359.50 2.03021
360.00 2.03104
