phi[deg] B[T]
0.00 0.98714
0.50 0.98694
1.00 0.98683
1.50 0.98676
2.00 0.98671
2.50 0.98668
3.00 0.98644
3.50 0.98608
4.00 0.98575
4.50 0.98544
5.00 0.98522
5.50 0.98508
6.00 0.98519
6.50 0.98501
7.00 0.98477
7.50 0.98454
8.00 0.98433
8.50 0.98413
9.00 0.98437
9.50 0.98492
10.00 0.98548
10.50 0.98601
11.00 0.98651
11.50 0.98701
12.00 0.98753
12.50 0.98813
13.00 0.98911
13.50 0.99021
14.00 0.99152
14.50 0.99282
15.00 0.99402
15.50 0.99522
16.00 0.99643
16.50 0.99765
17.00 0.99902
17.50 1.00059
18.00 1.00217
18.50 1.00315
19.00 1.00398
19.50 1.00481
20.00 1.00564
20.50 1.00648
21.00 1.00746
21.50 1.00852
22.00 1.00832
22.50 1.00735
23.00 1.00637
23.50 1.00539
24.00 1.00439
24.50 1.00338
25.00 1.00319
25.50 1.00062
26.00 0.99781
26.50 0.99512
27.00 0.99241
27.50 0.98968
28.00 0.98694
28.50 0.98418
29.00 0.97724
29.50 0.96891
30.00 0.96056
30.50 0.95230
31.00 0.94525
31.50 0.93817
32.00 0.93105
32.50 0.92148
33.00 0.91130
33.50 0.90107
34.00 0.88758
34.50 0.87342
35.00 0.85922
35.50 0.84496
36.00 0.83137
36.50 0.81908
37.00 0.80269
37.50 0.78498
38.00 0.76715
38.50 0.74924
39.00 0.73126
39.50 0.71320
40.00 0.69375
40.50 0.67172
41.00 0.64964
41.50 0.62749
42.00 0.60671
42.50 0.58602
43.00 0.56315
43.50 0.54023
44.00 0.51796
44.50 0.49566
45.00 0.47332
45.50 0.44986
46.00 0.42637
46.50 0.40286
47.00 0.38162
47.50 0.36096
48.00 0.34090
48.50 0.32134
49.00 0.30183
49.50 0.28232
50.00 0.26410
50.50 0.24784
51.00 0.23160
51.50 0.21538
52.00 0.19918
52.50 0.18411
53.00 0.17078
53.50 0.15976
54.00 0.14876
54.50 0.13778
55.00 0.12682
55.50 0.11589
56.00 0.10498
56.50 0.09524
57.00 0.08844
57.50 0.08190
58.00 0.07538
58.50 0.06887
59.00 0.06237
59.50 0.05589
60.00 0.04942
60.50 0.04409
61.00 0.04081
61.50 0.03753
62.00 0.03425
62.50 0.03099
63.00 0.02772
63.50 0.02447
64.00 0.02122
64.50 0.01871
65.00 0.01741
65.50 0.01611
66.00 0.01482
66.50 0.01352
67.00 0.01223
67.50 0.01094
68.00 0.00961
68.50 0.00823
69.00 0.00686
69.50 0.00554
70.00 0.00515
70.50 0.00477
71.00 0.00438
71.50 0.00400
72.00 0.00362
72.50 0.00324
73.00 0.00286
73.50 0.00247
74.00 0.00210
74.50 0.00172
75.00 0.00134
75.50 0.00121
76.00 0.00114
76.50 0.00105
77.00 0.00096
77.50 0.00088
78.00 0.00079
78.50 0.00070
79.00 0.00062
79.50 0.00053
80.00 0.00044
80.50 0.00035
81.00 0.00027
81.50 0.00021
82.00 0.00018
82.50 0.00016
83.00 0.00014
83.50 0.00012
84.00 0.00010
84.50 0.00008
85.00 0.00006
85.50 0.00004
86.00 0.00003
86.50 0.00003
87.00 0.00003
87.50 0.00003
88.00 0.00003
88.50 0.00003
89.00 0.00004
89.50 0.00004
90.00 0.00004
90.00 0.00004
90.50 0.00004
91.00 0.00004
91.50 0.00003
92.00 0.00003
92.50 0.00003
93.00 0.00003
93.50 0.00003
94.00 0.00003
94.50 0.00004
95.00 0.00006
95.50 0.00008
96.00 0.00010
96.50 0.00012
97.00 0.00014
97.50 0.00016
98.00 0.00018
98.50 0.00021
99.00 0.00027
99.50 0.00035
100.00 0.00044
100.50 0.00053
101.00 0.00062
101.50 0.00070
102.00 0.00079
102.50 0.00088
103.00 0.00096
103.50 0.00105
104.00 0.00114
104.50 0.00121
105.00 0.00134
105.50 0.00172
106.00 0.00210
106.50 0.00247
107.00 0.00286
107.50 0.00324
108.00 0.00362
108.50 0.00400
109.00 0.00438
109.50 0.00477
110.00 0.00515
110.50 0.00554
111.00 0.00686
111.50 0.00823
112.00 0.00961
112.50 0.01094
113.00 0.01223
113.50 0.01352
114.00 0.01482
114.50 0.01611
115.00 0.01741
115.50 0.01871
116.00 0.02122
116.50 0.02447
117.00 0.02772
117.50 0.03099
118.00 0.03425
118.50 0.03753
119.00 0.04081
119.50 0.04409
120.00 0.04942
120.50 0.05589
121.00 0.06237
121.50 0.06887
122.00 0.07538
122.50 0.08190
123.00 0.08844
123.50 0.09524
124.00 0.10498
124.50 0.11589
125.00 0.12682
125.50 0.13778
126.00 0.14876
126.50 0.15976
127.00 0.17078
127.50 0.18411
128.00 0.19918
128.50 0.21538
129.00 0.23160
129.50 0.24784
130.00 0.26410
130.50 0.28232
131.00 0.30183
131.50 0.32134
132.00 0.34090
132.50 0.36096
133.00 0.38162
133.50 0.40286
134.00 0.42637
134.50 0.44986
135.00 0.47332
135.50 0.49566
136.00 0.51796
136.50 0.54023
137.00 0.56315
137.50 0.58602
138.00 0.60671
138.50 0.62749
139.00 0.64964
139.50 0.67172
140.00 0.69375
140.50 0.71320
141.00 0.73126
141.50 0.74924
142.00 0.76715
142.50 0.78498
143.00 0.80269
143.50 0.81908
144.00 0.83137
144.50 0.84496
145.00 0.85922
145.50 0.87342
146.00 0.88758
146.50 0.90107
147.00 0.91130
147.50 0.92148
148.00 0.93105
148.50 0.93817
149.00 0.94525
149.50 0.95230
150.00 0.96056
150.50 0.96891
151.00 0.97724
151.50 0.98418
152.00 0.98694
152.50 0.98968
153.00 0.99241
153.50 0.99512
154.00 0.99781
154.50 1.00062
155.00 1.00319
155.50 1.00338
156.00 1.00439
156.50 1.00539
157.00 1.00637
157.50 1.00735
158.00 1.00832
158.50 1.00852
159.00 1.00746
159.50 1.00648
160.00 1.00564
160.50 1.00481
161.00 1.00398
161.50 1.00315
162.00 1.00217
162.50 1.00059
163.00 0.99902
163.50 0.99765
164.00 0.99643
164.50 0.99522
165.00 0.99402
165.50 0.99282
166.00 0.99152
166.50 0.99021
167.00 0.98911
167.50 0.98813
168.00 0.98753
168.50 0.98701
169.00 0.98651
169.50 0.98601
170.00 0.98548
170.50 0.98492
171.00 0.98437
171.50 0.98413
172.00 0.98433
172.50 0.98454
173.00 0.98477
173.50 0.98501
174.00 0.98519
174.50 0.98508
175.00 0.98522
175.50 0.98544
176.00 0.98575
176.50 0.98608
177.00 0.98644
177.50 0.98668
178.00 0.98671
178.50 0.98676
179.00 0.98683
179.50 0.98694
180.00 0.98714
180.00 0.98714
180.50 0.98694
181.00 0.98683
181.50 0.98676
182.00 0.98671
182.50 0.98668
183.00 0.98644
183.50 0.98608
184.00 0.98575
184.50 0.98544
185.00 0.98522
185.50 0.98508
186.00 0.98519
186.50 0.98501
187.00 0.98477
187.50 0.98454
188.00 0.98433
188.50 0.98413
189.00 0.98437
189.50 0.98492
190.00 0.98548
190.50 0.98601
191.00 0.98651
191.50 0.98701
192.00 0.98753
192.50 0.98813
193.00 0.98911
193.50 0.99021
194.00 0.99152
194.50 0.99282
195.00 0.99402
195.50 0.99522
196.00 0.99643
196.50 0.99765
197.00 0.99902
197.50 1.00059
198.00 1.00217
198.50 1.00315
199.00 1.00398
199.50 1.00481
200.00 1.00564
200.50 1.00648
201.00 1.00746
201.50 1.00852
202.00 1.00832
202.50 1.00735
203.00 1.00637
203.50 1.00539
204.00 1.00439
204.50 1.00338
205.00 1.00319
205.50 1.00062
206.00 0.99781
206.50 0.99512
207.00 0.99241
207.50 0.98968
208.00 0.98694
208.50 0.98418
209.00 0.97724
209.50 0.96891
210.00 0.96056
210.50 0.95230
211.00 0.94525
211.50 0.93817
212.00 0.93105
212.50 0.92148
213.00 0.91130
213.50 0.90107
214.00 0.88758
214.50 0.87342
215.00 0.85922
215.50 0.84496
216.00 0.83137
216.50 0.81908
217.00 0.80269
217.50 0.78498
218.00 0.76715
218.50 0.74924
219.00 0.73126
219.50 0.71320
220.00 0.69375
220.50 0.67172
221.00 0.64964
221.50 0.62749
222.00 0.60671
222.50 0.58602
223.00 0.56315
223.50 0.54023
224.00 0.51796
224.50 0.49566
225.00 0.47332
225.50 0.44986
226.00 0.42637
226.50 0.40286
227.00 0.38162
227.50 0.36096
228.00 0.34090
228.50 0.32134
229.00 0.30183
229.50 0.28232
230.00 0.26410
230.50 0.24784
231.00 0.23160
231.50 0.21538
232.00 0.19918
232.50 0.18411
233.00 0.17078
233.50 0.15976
234.00 0.14876
234.50 0.13778
235.00 0.12682
235.50 0.11589
236.00 0.10498
236.50 0.09524
237.00 0.08844
237.50 0.08190
238.00 0.07538
238.50 0.06887
239.00 0.06237
239.50 0.05589
240.00 0.04942
240.50 0.04409
241.00 0.04081
241.50 0.03753
242.00 0.03425
242.50 0.03099
243.00 0.02772
243.50 0.02447
244.00 0.02122
244.50 0.01871
245.00 0.01741
245.50 0.01611
246.00 0.01482
246.50 0.01352
247.00 0.01223
247.50 0.01094
248.00 0.00961
248.50 0.00823
249.00 0.00686
249.50 0.00554
250.00 0.00515
250.50 0.00477
251.00 0.00438
251.50 0.00400
252.00 0.00362
252.50 0.00324
253.00 0.00286
253.50 0.00247
254.00 0.00210
254.50 0.00172
255.00 0.00134
255.50 0.00121
256.00 0.00114
256.50 0.00105
257.00 0.00096
257.50 0.00088
258.00 0.00079
258.50 0.00070
259.00 0.00062
259.50 0.00053
260.00 0.00044
260.50 0.00035
261.00 0.00027
261.50 0.00021
262.00 0.00018
262.50 0.00016
263.00 0.00014
263.50 0.00012
264.00 0.00010
264.50 0.00008
265.00 0.00006
265.50 0.00004
266.00 0.00003
266.50 0.00003
267.00 0.00003
267.50 0.00003
268.00 0.00003
268.50 0.00003
269.00 0.00004
269.50 0.00004
270.00 0.00004
270.00 0.00004
270.50 0.00004
271.00 0.00004
271.50 0.00003
272.00 0.00003
272.50 0.00003
273.00 0.00003
273.50 0.00003
274.00 0.00003
274.50 0.00004
275.00 0.00006
275.50 0.00008
276.00 0.00010
276.50 0.00012
277.00 0.00014
277.50 0.00016
278.00 0.00018
278.50 0.00021
279.00 0.00027
279.50 0.00035
280.00 0.00044
280.50 0.00053
281.00 0.00062
281.50 0.00070
282.00 0.00079
282.50 0.00088
283.00 0.00096
283.50 0.00105
284.00 0.00114
284.50 0.00121
285.00 0.00134
285.50 0.00172
286.00 0.00210
286.50 0.00247
287.00 0.00286
287.50 0.00324
288.00 0.00362
288.50 0.00400
289.00 0.00438
289.50 0.00477
290.00 0.00515
290.50 0.00554
291.00 0.00686
291.50 0.00823
292.00 0.00961
292.50 0.01094
293.00 0.01223
293.50 0.01352
294.00 0.01482
294.50 0.01611
295.00 0.01741
295.50 0.01871
296.00 0.02122
296.50 0.02447
297.00 0.02772
297.50 0.03099
298.00 0.03425
298.50 0.03753
299.00 0.04081
299.50 0.04409
300.00 0.04942
300.50 0.05589
301.00 0.06237
301.50 0.06887
302.00 0.07538
302.50 0.08190
303.00 0.08844
303.50 0.09524
304.00 0.10498
304.50 0.11589
305.00 0.12682
305.50 0.13778
306.00 0.14876
306.50 0.15976
307.00 0.17078
307.50 0.18411
308.00 0.19918
308.50 0.21538
309.00 0.23160
309.50 0.24784
310.00 0.26410
310.50 0.28232
311.00 0.30183
311.50 0.32134
312.00 0.34090
312.50 0.36096
313.00 0.38162
313.50 0.40286
314.00 0.42637
314.50 0.44986
315.00 0.47332
315.50 0.49566
316.00 0.51796
316.50 0.54023
317.00 0.56315
317.50 0.58602
318.00 0.60671
318.50 0.62749
319.00 0.64964
319.50 0.67172
320.00 0.69375
320.50 0.71320
321.00 0.73126
321.50 0.74924
322.00 0.76715
322.50 0.78498
323.00 0.80269
323.50 0.81908
324.00 0.83137
324.50 0.84496
325.00 0.85922
325.50 0.87342
326.00 0.88758
326.50 0.90107
327.00 0.91130
327.50 0.92148
328.00 0.93105
328.50 0.93817
329.00 0.94525
329.50 0.95230
330.00 0.96056
330.50 0.96891
331.00 0.97724
331.50 0.98418
332.00 0.98694
332.50 0.98968
333.00 0.99241
333.50 0.99512
334.00 0.99781
334.50 1.00062
335.00 1.00319
335.50 1.00338
336.00 1.00439
336.50 1.00539
337.00 1.00637
337.50 1.00735
338.00 1.00832
338.50 1.00852
339.00 1.00746
339.50 1.00648
340.00 1.00564
340.50 1.00481
341.00 1.00398
341.50 1.00315
342.00 1.00217
342.50 1.00059
343.00 0.99902
343.50 0.99765
344.00 0.99643
344.50 0.99522
345.00 0.99402
345.50 0.99282
346.00 0.99152
346.50 0.99021
347.00 0.98911
347.50 0.98813
348.00 0.98753
348.50 0.98701
349.00 0.98651
349.50 0.98601
350.00 0.98548
350.50 0.98492
351.00 0.98437
351.50 0.98413
352.00 0.98433
352.50 0.98454
353.00 0.98477
353.50 0.98501
354.00 0.98519
354.50 0.98508
355.00 0.98522
355.50 0.98544
356.00 0.98575
356.50 0.98608
357.00 0.98644
357.50 0.98668
358.00 0.98671
358.50 0.98676
359.00 0.98683
359.50 0.98694
360.00 0.98714
