phi[deg] B[T]
0.00 1.13987
0.50 1.13945
1.00 1.13913
1.50 1.13852
2.00 1.13719
2.50 1.13603
3.00 1.13511
3.50 1.13304
4.00 1.13082
4.50 1.12860
5.00 1.12668
5.50 1.12488
6.00 1.12061
6.50 1.11633
7.00 1.11286
7.50 1.11044
8.00 1.10730
8.50 1.09995
9.00 1.09258
9.50 1.08581
10.00 1.08270
10.50 1.07531
11.00 1.06630
11.50 1.05722
12.00 1.04998
12.50 1.04406
13.00 1.03188
13.50 1.01732
14.00 1.00263
14.50 0.98943
15.00 0.97459
15.50 0.95721
16.00 0.93964
16.50 0.92219
17.00 0.90519
17.50 0.88049
18.00 0.85382
18.50 0.82693
19.00 0.79983
19.50 0.77151
20.00 0.74291
20.50 0.71404
21.00 0.68491
21.50 0.65552
22.00 0.61817
22.50 0.57944
23.00 0.54494
23.50 0.51025
24.00 0.47536
24.50 0.43824
25.00 0.40412
25.50 0.37611
26.00 0.34801
26.50 0.31981
27.00 0.29151
27.50 0.25961
28.00 0.23358
28.50 0.21348
29.00 0.19627
29.50 0.17905
30.00 0.16183
30.50 0.14462
31.00 0.12857
31.50 0.11342
32.00 0.10332
32.50 0.09482
33.00 0.08674
33.50 0.07913
34.00 0.07153
34.50 0.06394
35.00 0.05635
35.50 0.04908
36.00 0.04483
36.50 0.04058
37.00 0.03631
37.50 0.03306
38.00 0.02998
38.50 0.02690
39.00 0.02383
39.50 0.02134
40.00 0.01919
40.50 0.01735
41.00 0.01584
41.50 0.01433
42.00 0.01282
42.50 0.01131
43.00 0.01028
43.50 0.00939
44.00 0.00849
44.50 0.00760
45.00 0.00671
45.50 0.00616
46.00 0.00562
46.50 0.00508
47.00 0.00453
47.50 0.00399
48.00 0.00367
48.50 0.00337
49.00 0.00306
49.50 0.00275
50.00 0.00244
50.50 0.00220
51.00 0.00198
51.50 0.00180
52.00 0.00167
52.50 0.00153
53.00 0.00139
53.50 0.00125
54.00 0.00112
54.50 0.00099
55.00 0.00093
55.50 0.00087
56.00 0.00081
56.50 0.00075
57.00 0.00069
57.50 0.00064
58.00 0.00058
58.50 0.00053
59.00 0.00050
59.50 0.00048
60.00 0.00045
60.50 0.00043
61.00 0.00040
61.50 0.00037
62.00 0.00035
62.50 0.00033
63.00 0.00032
63.50 0.00031
64.00 0.00030
64.50 0.00029
65.00 0.00028
65.50 0.00027
66.00 0.00025
66.50 0.00025
67.00 0.00024
67.50 0.00023
68.00 0.00023
68.50 0.00022
69.00 0.00021
69.50 0.00021
70.00 0.00020
70.50 0.00020
71.00 0.00019
71.50 0.00019
72.00 0.00018
72.50 0.00018
73.00 0.00017
73.50 0.00016
74.00 0.00016
74.50 0.00015
75.00 0.00015
75.50 0.00015
76.00 0.00014
76.50 0.00014
77.00 0.00013
77.50 0.00013
78.00 0.00012
78.50 0.00012
79.00 0.00011
79.50 0.00011
80.00 0.00010
80.50 0.00010
81.00 0.00009
81.50 0.00009
82.00 0.00008
82.50 0.00008
83.00 0.00007
83.50 0.00007
84.00 0.00006
84.50 0.00006
85.00 0.00005
85.50 0.00005
86.00 0.00004
86.50 0.00004
87.00 0.00003
87.50 0.00003
88.00 0.00002
88.50 0.00002
89.00 0.00002
89.50 0.00002
90.00 0.00001
90.00 0.00001
90.50 0.00002
91.00 0.00002
91.50 0.00002
92.00 0.00002
92.50 0.00003
93.00 0.00003
93.50 0.00004
94.00 0.00004
94.50 0.00005
95.00 0.00005
95.50 0.00006
96.00 0.00006
96.50 0.00007
97.00 0.00007
97.50 0.00008
98.00 0.00008
98.50 0.00009
99.00 0.00009
99.50 0.00010
100.00 0.00010
100.50 0.00011
101.00 0.00011
101.50 0.00012
102.00 0.00012
102.50 0.00013
103.00 0.00013
103.50 0.00014
104.00 0.00014
104.50 0.00015
105.00 0.00015
105.50 0.00015
106.00 0.00016
106.50 0.00016
107.00 0.00017
107.50 0.00018
108.00 0.00018
108.50 0.00019
109.00 0.00019
109.50 0.00020
110.00 0.00020
110.50 0.00021
111.00 0.00021
111.50 0.00022
112.00 0.00023
112.50 0.00023
113.00 0.00024
113.50 0.00025
114.00 0.00025
114.50 0.00027
115.00 0.00028
115.50 0.00029
116.00 0.00030
116.50 0.00031
117.00 0.00032
117.50 0.00033
118.00 0.00035
118.50 0.00037
119.00 0.00040
119.50 0.00043
120.00 0.00045
120.50 0.00048
121.00 0.00050
121.50 0.00053
122.00 0.00058
122.50 0.00064
123.00 0.00069
123.50 0.00075
124.00 0.00081
124.50 0.00087
125.00 0.00093
125.50 0.00099
126.00 0.00112
126.50 0.00125
127.00 0.00139
127.50 0.00153
128.00 0.00167
128.50 0.00180
129.00 0.00198
129.50 0.00220
130.00 0.00244
130.50 0.00275
131.00 0.00306
131.50 0.00337
132.00 0.00367
132.50 0.00399
133.00 0.00453
133.50 0.00508
134.00 0.00562
134.50 0.00616
135.00 0.00671
135.50 0.00760
136.00 0.00849
136.50 0.00939
137.00 0.01028
137.50 0.01131
138.00 0.01282
138.50 0.01433
139.00 0.01584
139.50 0.01735
140.00 0.01919
140.50 0.02134
141.00 0.02383
141.50 0.02690
142.00 0.02998
142.50 0.03306
143.00 0.03631
143.50 0.04058
144.00 0.04483
144.50 0.04908
145.00 0.05635
145.50 0.06394
146.00 0.07153
146.50 0.07913
147.00 0.08674
147.50 0.09482
148.00 0.10332
148.50 0.11342
149.00 0.12857
149.50 0.14462
150.00 0.16183
150.50 0.17905
151.00 0.19627
151.50 0.21348
152.00 0.23358
152.50 0.25961
153.00 0.29151
153.50 0.31981
154.00 0.34801
154.50 0.37611
155.00 0.40412
155.50 0.43824
156.00 0.47536
156.50 0.51025
157.00 0.54494
157.50 0.57944
158.00 0.61817
158.50 0.65552
159.00 0.68491
159.50 0.71404
160.00 0.74291
160.50 0.77151
161.00 0.79983
161.50 0.82693
162.00 0.85382
162.50 0.88049
163.00 0.90519
163.50 0.92219
164.00 0.93964
164.50 0.95721
165.00 0.97459
165.50 0.98943
166.00 1.00263
166.50 1.01732
167.00 1.03188
167.50 1.04406
168.00 1.04998
168.50 1.05722
169.00 1.06630
169.50 1.07531
170.00 1.08270
170.50 1.08581
171.00 1.09258
171.50 1.09995
172.00 1.10730
172.50 1.11044
173.00 1.11286
173.50 1.11633
174.00 1.12061
174.50 1.12488
175.00 1.12668
175.50 1.12860
176.00 1.13082
176.50 1.13304
177.00 1.13511
177.50 1.13603
178.00 1.13719
178.50 1.13852
179.00 1.13913
179.50 1.13945
180.00 1.13987
180.00 1.13987
180.50 1.13945
181.00 1.13913
181.50 1.13852
182.00 1.13719
182.50 1.13603
183.00 1.13511
183.50 1.13304
184.00 1.13082
184.50 1.12860
185.00 1.12668
185.50 1.12488
186.00 1.12061
186.50 1.11633
187.00 1.11286
187.50 1.11044
188.00 1.10730
188.50 1.09995
189.00 1.09258
189.50 1.08581
190.00 1.08270
190.50 1.07531
191.00 1.06630
191.50 1.05722
192.00 1.04998
192.50 1.04406
193.00 1.03188
193.50 1.01732
194.00 1.00263
194.50 0.98943
195.00 0.97459
195.50 0.95721
196.00 0.93964
196.50 0.92219
197.00 0.90519
197.50 0.88049
198.00 0.85382
198.50 0.82693
199.00 0.79983
199.50 0.77151
200.00 0.74291
200.50 0.71404
201.00 0.68491
201.50 0.65552
202.00 0.61817
202.50 0.57944
203.00 0.54494
203.50 0.51025
204.00 0.47536
204.50 0.43824
205.00 0.40412
205.50 0.37611
206.00 0.34801
206.50 0.31981
207.00 0.29151
207.50 0.25961
208.00 0.23358
208.50 0.21348
209.00 0.19627
209.50 0.17905
210.00 0.16183
210.50 0.14462
211.00 0.12857
211.50 0.11342
212.00 0.10332
212.50 0.09482
213.00 0.08674
213.50 0.07913
214.00 0.07153
214.50 0.06394
215.00 0.05635
215.50 0.04908
216.00 0.04483
216.50 0.04058
217.00 0.03631
217.50 0.03306
218.00 0.02998
218.50 0.02690
219.00 0.02383
219.50 0.02134
220.00 0.01919
220.50 0.01735
221.00 0.01584
221.50 0.01433
222.00 0.01282
222.50 0.01131
223.00 0.01028
223.50 0.00939
224.00 0.00849
224.50 0.00760
225.00 0.00671
225.50 0.00616
226.00 0.00562
226.50 0.00508
227.00 0.00453
227.50 0.00399
228.00 0.00367
228.50 0.00337
229.00 0.00306
229.50 0.00275
230.00 0.00244
230.50 0.00220
231.00 0.00198
231.50 0.00180
232.00 0.00167
232.50 0.00153
233.00 0.00139
233.50 0.00125
234.00 0.00112
234.50 0.00099
235.00 0.00093
235.50 0.00087
236.00 0.00081
236.50 0.00075
237.00 0.00069
237.50 0.00064
238.00 0.00058
238.50 0.00053
239.00 0.00050
239.50 0.00048
240.00 0.00045
240.50 0.00043
241.00 0.00040
241.50 0.00037
242.00 0.00035
242.50 0.00033
243.00 0.00032
243.50 0.00031
244.00 0.00030
244.50 0.00029
245.00 0.00028
245.50 0.00027
246.00 0.00025
246.50 0.00025
247.00 0.00024
247.50 0.00023
248.00 0.00023
248.50 0.00022
249.00 0.00021
249.50 0.00021
250.00 0.00020
250.50 0.00020
251.00 0.00019
251.50 0.00019
252.00 0.00018
252.50 0.00018
253.00 0.00017
253.50 0.00016
254.00 0.00016
254.50 0.00015
255.00 0.00015
255.50 0.00015
256.00 0.00014
256.50 0.00014
257.00 0.00013
257.50 0.00013
258.00 0.00012
258.50 0.00012
259.00 0.00011
259.50 0.00011
260.00 0.00010
260.50 0.00010
261.00 0.00009
261.50 0.00009
262.00 0.00008
262.50 0.00008
263.00 0.00007
263.50 0.00007
264.00 0.00006
264.50 0.00006
265.00 0.00005
265.50 0.00005
266.00 0.00004
266.50 0.00004
267.00 0.00003
267.50 0.00003
268.00 0.00002
268.50 0.00002
269.00 0.00002
269.50 0.00002
270.00 0.00001
270.00 0.00001
270.50 0.00002
271.00 0.00002
271.50 0.00002
272.00 0.00002
272.50 0.00003
273.00 0.00003
273.50 0.00004
274.00 0.00004
274.50 0.00005
275.00 0.00005
275.50 0.00006
276.00 0.00006
276.50 0.00007
277.00 0.00007
277.50 0.00008
278.00 0.00008
278.50 0.00009
279.00 0.00009
279.50 0.00010
280.00 0.00010
280.50 0.00011
281.00 0.00011
281.50 0.00012
282.00 0.00012
282.50 0.00013
283.00 0.00013
283.50 0.00014
284.00 0.00014
284.50 0.00015
285.00 0.00015
285.50 0.00015
286.00 0.00016
286.50 0.00016
287.00 0.00017
287.50 0.00018
288.00 0.00018
288.50 0.00019
289.00 0.00019
289.50 0.00020
290.00 0.00020
290.50 0.00021
291.00 0.00021
291.50 0.00022
292.00 0.00023
292.50 0.00023
293.00 0.00024
293.50 0.00025
294.00 0.00025
294.50 0.00027
295.00 0.00028
295.50 0.00029
296.00 0.00030
296.50 0.00031
297.00 0.00032
297.50 0.00033
298.00 0.00035
298.50 0.00037
299.00 0.00040
299.50 0.00043
300.00 0.00045
300.50 0.00048
301.00 0.00050
301.50 0.00053
302.00 0.00058
302.50 0.00064
303.00 0.00069
303.50 0.00075
304.00 0.00081
304.50 0.00087
305.00 0.00093
305.50 0.00099
306.00 0.00112
306.50 0.00125
307.00 0.00139
307.50 0.00153
308.00 0.00167
308.50 0.00180
309.00 0.00198
309.50 0.00220
310.00 0.00244
310.50 0.00275
311.00 0.00306
311.50 0.00337
312.00 0.00367
312.50 0.00399
313.00 0.00453
313.50 0.00508
314.00 0.00562
314.50 0.00616
315.00 0.00671
315.50 0.00760
316.00 0.00849
316.50 0.00939
317.00 0.01028
317.50 0.01131
318.00 0.01282
318.50 0.01433
319.00 0.01584
319.50 0.01735
320.00 0.01919
320.50 0.02134
321.00 0.02383
321.50 0.02690
322.00 0.02998
322.50 0.03306
323.00 0.03631
323.50 0.04058
324.00 0.04483
324.50 0.04908
325.00 0.05635
325.50 0.06394
326.00 0.07153
326.50 0.07913
327.00 0.08674
327.50 0.09482
328.00 0.10332
328.50 0.11342
329.00 0.12857
329.50 0.14462
330.00 0.16183
330.50 0.17905
331.00 0.19627
331.50 0.21348
332.00 0.23358
332.50 0.25961
333.00 0.29151
333.50 0.31981
334.00 0.34801
334.50 0.37611
335.00 0.40412
335.50 0.43824
336.00 0.47536
336.50 0.51025
337.00 0.54494
337.50 0.57944
338.00 0.61817
338.50 0.65552
339.00 0.68491
339.50 0.71404
340.00 0.74291
340.50 0.77151
341.00 0.79983
341.50 0.82693
342.00 0.85382
342.50 0.88049
343.00 0.90519
343.50 0.92219
344.00 0.93964
344.50 0.95721
345.00 0.97459
345.50 0.98943
346.00 1.00263
346.50 1.01732
347.00 1.03188
347.50 1.04406
348.00 1.04998
348.50 1.05722
349.00 1.06630
349.50 1.07531
350.00 1.08270
350.50 1.08581
351.00 1.09258
351.50 1.09995
352.00 1.10730
352.50 1.11044
353.00 1.11286
353.50 1.11633
354.00 1.12061
354.50 1.12488
355.00 1.12668
355.50 1.12860
356.00 1.13082
356.50 1.13304
357.00 1.13511
357.50 1.13603
358.00 1.13719
358.50 1.13852
359.00 1.13913
359.50 1.13945
360.00 1.13987
