phi[deg] B[T]
0.00 1.98502
0.50 1.98499
1.00 1.98511
1.50 1.98539
2.00 1.98581
2.50 1.98645
3.00 1.98666
3.50 1.98774
4.00 1.98895
4.50 1.99031
5.00 1.99180
5.50 1.99343
6.00 1.99534
6.50 1.99739
7.00 1.99958
7.50 2.00024
8.00 2.00087
8.50 2.00196
9.00 2.00361
9.50 2.00538
10.00 2.00728
10.50 2.00661
11.00 2.00514
11.50 2.00428
12.00 2.00380
12.50 2.00343
13.00 2.00317
13.50 2.00278
14.00 2.00104
14.50 1.99842
15.00 1.99324
15.50 1.98871
16.00 1.98584
16.50 1.98306
17.00 1.98034
17.50 1.97663
18.00 1.96970
18.50 1.96283
19.00 1.95626
19.50 1.95186
20.00 1.94750
20.50 1.94149
21.00 1.93290
21.50 1.92436
22.00 1.91471
22.50 1.90367
23.00 1.89266
23.50 1.88167
24.00 1.86783
24.50 1.85335
25.00 1.83891
25.50 1.82435
26.00 1.80713
26.50 1.79045
27.00 1.77395
27.50 1.75748
28.00 1.74003
28.50 1.72134
29.00 1.70252
29.50 1.68280
30.00 1.66309
30.50 1.64340
31.00 1.62177
31.50 1.59908
32.00 1.57863
32.50 1.55819
33.00 1.53774
33.50 1.51599
34.00 1.49254
34.50 1.46909
35.00 1.44480
35.50 1.41960
36.00 1.39440
36.50 1.36921
37.00 1.34373
37.50 1.31760
38.00 1.29200
38.50 1.26640
39.00 1.24080
39.50 1.21504
40.00 1.18914
40.50 1.16426
41.00 1.13937
41.50 1.11448
42.00 1.08929
42.50 1.06509
43.00 1.04156
43.50 1.01814
44.00 0.99501
44.50 0.97187
45.00 0.94852
45.50 0.92613
46.00 0.90426
46.50 0.88236
47.00 0.86126
47.50 0.84082
48.00 0.81930
48.50 0.79696
49.00 0.77680
49.50 0.75694
50.00 0.73674
50.50 0.71534
51.00 0.69612
51.50 0.67685
52.00 0.65752
52.50 0.63803
53.00 0.61559
53.50 0.59489
54.00 0.57493
54.50 0.55490
55.00 0.53481
55.50 0.51443
56.00 0.49214
56.50 0.47195
57.00 0.45166
57.50 0.43130
58.00 0.41091
58.50 0.39131
59.00 0.37164
59.50 0.34995
60.00 0.32818
60.50 0.30636
61.00 0.28447
61.50 0.26301
62.00 0.24704
62.50 0.23125
63.00 0.21540
63.50 0.19951
64.00 0.18356
64.50 0.16683
65.00 0.15585
65.50 0.14507
66.00 0.13429
66.50 0.12345
67.00 0.11249
67.50 0.10152
68.00 0.09279
68.50 0.08675
69.00 0.08069
69.50 0.07464
70.00 0.06847
70.50 0.06229
71.00 0.05612
71.50 0.05031
72.00 0.04672
72.50 0.04336
73.00 0.04001
73.50 0.03666
74.00 0.03331
74.50 0.02997
75.00 0.02758
75.50 0.02572
76.00 0.02387
76.50 0.02203
77.00 0.02018
77.50 0.01827
78.00 0.01635
78.50 0.01511
79.00 0.01412
79.50 0.01313
80.00 0.01215
80.50 0.01116
81.00 0.01017
81.50 0.00921
82.00 0.00852
82.50 0.00795
83.00 0.00742
83.50 0.00688
84.00 0.00635
84.50 0.00587
85.00 0.00559
85.50 0.00530
86.00 0.00502
86.50 0.00473
87.00 0.00443
87.50 0.00433
88.00 0.00422
88.50 0.00410
89.00 0.00398
89.50 0.00386
90.00 0.00374
90.00 0.00374
90.50 0.00386
91.00 0.00398
91.50 0.00410
92.00 0.00422
92.50 0.00433
93.00 0.00443
93.50 0.00473
94.00 0.00502
94.50 0.00530
95.00 0.00559
95.50 0.00587
96.00 0.00635
96.50 0.00688
97.00 0.00742
97.50 0.00795
98.00 0.00852
98.50 0.00921
99.00 0.01017
99.50 0.01116
100.00 0.01215
100.50 0.01313
101.00 0.01412
101.50 0.01511
102.00 0.01635
102.50 0.01827
103.00 0.02018
103.50 0.02203
104.00 0.02387
104.50 0.02572
105.00 0.02758
105.50 0.02997
106.00 0.03331
106.50 0.03666
107.00 0.04001
107.50 0.04336
108.00 0.04672
108.50 0.05031
109.00 0.05612
109.50 0.06229
110.00 0.06847
110.50 0.07464
111.00 0.08069
111.50 0.08675
112.00 0.09279
112.50 0.10152
113.00 0.11249
113.50 0.12345
114.00 0.13429
114.50 0.14507
115.00 0.15585
115.50 0.16683
116.00 0.18356
116.50 0.19951
117.00 0.21540
117.50 0.23125
118.00 0.24704
118.50 0.26301
119.00 0.28447
119.50 0.30636
120.00 0.32818
120.50 0.34995
121.00 0.37164
121.50 0.39131
122.00 0.41091
122.50 0.43130
123.00 0.45166
123.50 0.47195
124.00 0.49214
124.50 0.51443
125.00 0.53481
125.50 0.55490
126.00 0.57493
126.50 0.59489
127.00 0.61559
127.50 0.63803
128.00 0.65752
128.50 0.67685
129.00 0.69612
129.50 0.71534
130.00 0.73674
130.50 0.75694
131.00 0.77680
131.50 0.79696
132.00 0.81930
132.50 0.84082
133.00 0.86126
133.50 0.88236
134.00 0.90426
134.50 0.92613
135.00 0.94852
135.50 0.97187
136.00 0.99501
136.50 1.01814
137.00 1.04156
137.50 1.06509
138.00 1.08929
138.50 1.11448
139.00 1.13937
139.50 1.16426
140.00 1.18914
140.50 1.21504
141.00 1.24080
141.50 1.26640
142.00 1.29200
142.50 1.31760
143.00 1.34373
143.50 1.36921
144.00 1.39440
144.50 1.41960
145.00 1.44480
145.50 1.46909
146.00 1.49254
146.50 1.51599
147.00 1.53774
147.50 1.55819
148.00 1.57863
148.50 1.59908
149.00 1.62177
149.50 1.64340
150.00 1.66309
150.50 1.68280
151.00 1.70252
151.50 1.72134
152.00 1.74003
152.50 1.75748
153.00 1.77395
153.50 1.79045
154.00 1.80713
154.50 1.82435
155.00 1.83891
155.50 1.85335
156.00 1.86783
156.50 1.88167
157.00 1.89266
157.50 1.90367
158.00 1.91471
158.50 1.92436
159.00 1.93290
159.50 1.94149
160.00 1.94750
160.50 1.95186
161.00 1.95626
161.50 1.96283
162.00 1.96970
162.50 1.97663
163.00 1.98034
163.50 1.98306
164.00 1.98584
164.50 1.98871
165.00 1.99324
165.50 1.99842
166.00 2.00104
166.50 2.00278
167.00 2.00317
167.50 2.00343
168.00 2.00380
168.50 2.00428
169.00 2.00514
169.50 2.00661
170.00 2.00728
170.50 2.00538
171.00 2.00361
171.50 2.00196
172.00 2.00087
172.50 2.00024
173.00 1.99958
173.50 1.99739
174.00 1.99534
174.50 1.99343
175.00 1.99180
175.50 1.99031
176.00 1.98895
176.50 1.98774
177.00 1.98666
177.50 1.98645
178.00 1.98581
178.50 1.98539
179.00 1.98511
179.50 1.98499
180.00 1.98502
180.00 1.98502
180.50 1.98499
181.00 1.98511
181.50 1.98539
182.00 1.98581
182.50 1.98645
183.00 1.98666
183.50 1.98774
184.00 1.98895
184.50 1.99031
185.00 1.99180
185.50 1.99343
186.00 1.99534
186.50 1.99739
187.00 1.99958
187.50 2.00024
188.00 2.00087
188.50 2.00196
189.00 2.00361
189.50 2.00538
190.00 2.00728
190.50 2.00661
191.00 2.00514
191.50 2.00428
192.00 2.00380
192.50 2.00343
193.00 2.00317
193.50 2.00278
194.00 2.00104
194.50 1.99842
195.00 1.99324
195.50 1.98871
196.00 1.98584
196.50 1.98306
197.00 1.98034
197.50 1.97663
198.00 1.96970
198.50 1.96283
199.00 1.95626
199.50 1.95186
200.00 1.94750
200.50 1.94149
201.00 1.93290
201.50 1.92436
202.00 1.91471
202.50 1.90367
203.00 1.89266
203.50 1.88167
204.00 1.86783
204.50 1.85335
205.00 1.83891
205.50 1.82435
206.00 1.80713
206.50 1.79045
207.00 1.77395
207.50 1.75748
208.00 1.74003
208.50 1.72134
209.00 1.70252
209.50 1.68280
210.00 1.66309
210.50 1.64340
211.00 1.62177
211.50 1.59908
212.00 1.57863
212.50 1.55819
213.00 1.53774
213.50 1.51599
214.00 1.49254
214.50 1.46909
215.00 1.44480
215.50 1.41960
216.00 1.39440
216.50 1.36921
217.00 1.34373
217.50 1.31760
218.00 1.29200
218.50 1.26640
219.00 1.24080
219.50 1.21504
220.00 1.18914
220.50 1.16426
221.00 1.13937
221.50 1.11448
222.00 1.08929
222.50 1.06509
223.00 1.04156
223.50 1.01814
224.00 0.99501
224.50 0.97187
225.00 0.94852
225.50 0.92613
226.00 0.90426
226.50 0.88236
227.00 0.86126
227.50 0.84082
228.00 0.81930
228.50 0.79696
229.00 0.77680
229.50 0.75694
230.00 0.73674
230.50 0.71534
231.00 0.69612
231.50 0.67685
232.00 0.65752
232.50 0.63803
233.00 0.61559
233.50 0.59489
234.00 0.57493
234.50 0.55490
235.00 0.53481
235.50 0.51443
236.00 0.49214
236.50 0.47195
237.00 0.45166
237.50 0.43130
238.00 0.41091
238.50 0.39131
239.00 0.37164
239.50 0.34995
240.00 0.32818
240.50 0.30636
241.00 0.28447
241.50 0.26301
242.00 0.24704
242.50 0.23125
243.00 0.21540
243.50 0.19951
244.00 0.18356
244.50 0.16683
245.00 0.15585
245.50 0.14507
246.00 0.13429
246.50 0.12345
247.00 0.11249
247.50 0.10152
248.00 0.09279
248.50 0.08675
249.00 0.08069
249.50 0.07464
250.00 0.06847
250.50 0.06229
251.00 0.05612
251.50 0.05031
252.00 0.04672
252.50 0.04336
253.00 0.04001
253.50 0.03666
254.00 0.03331
254.50 0.02997
255.00 0.02758
255.50 0.02572
256.00 0.02387
256.50 0.02203
257.00 0.02018
257.50 0.01827
258.00 0.01635
258.50 0.01511
259.00 0.01412
259.50 0.01313
260.00 0.01215
260.50 0.01116
261.00 0.01017
261.50 0.00921
262.00 0.00852
262.50 0.00795
263.00 0.00742
263.50 0.00688
264.00 0.00635
264.50 0.00587
265.00 0.00559
265.50 0.00530
266.00 0.00502
266.50 0.00473
267.00 0.00443
267.50 0.00433
268.00 0.00422
268.50 0.00410
269.00 0.00398
269.50 0.00386
270.00 0.00374
270.00 0.00374
270.50 0.00386
271.00 0.00398
271.50 0.00410
272.00 0.00422
272.50 0.00433
273.00 0.00443
273.50 0.00473
274.00 0.00502
274.50 0.00530
275.00 0.00559
275.50 0.00587
276.00 0.00635
276.50 0.00688
277.00 0.00742
277.50 0.00795
278.00 0.00852
278.50 0.00921
279.00 0.01017
279.50 0.01116
280.00 0.01215
280.50 0.01313
281.00 0.01412
281.50 0.01511
282.00 0.01635
282.50 0.01827
283.00 0.02018
283.50 0.02203
284.00 0.02387
284.50 0.02572
285.00 0.02758
285.50 0.02997
286.00 0.03331
286.50 0.03666
287.00 0.04001
287.50 0.04336
288.00 0.04672
288.50 0.05031
289.00 0.05612
289.50 0.06229
290.00 0.06847
290.50 0.07464
291.00 0.08069
291.50 0.08675
292.00 0.09279
292.50 0.10152
293.00 0.11249
293.50 0.12345
294.00 0.13429
294.50 0.14507
295.00 0.15585
295.50 0.16683
296.00 0.18356
296.50 0.19951
297.00 0.21540
297.50 0.23125
298.00 0.24704
298.50 0.26301
299.00 0.28447
299.50 0.30636
300.00 0.32818
300.50 0.34995
301.00 0.37164
301.50 0.39131
302.00 0.41091
302.50 0.43130
303.00 0.45166
303.50 0.47195
304.00 0.49214
304.50 0.51443
305.00 0.53481
305.50 0.55490
306.00 0.57493
306.50 0.59489
307.00 0.61559
307.50 0.63803
308.00 0.65752
308.50 0.67685
309.00 0.69612
309.50 0.71534
310.00 0.73674
310.50 0.75694
311.00 0.77680
311.50 0.79696
312.00 0.81930
312.50 0.84082
313.00 0.86126
313.50 0.88236
314.00 0.90426
314.50 0.92613
315.00 0.94852
315.50 0.97187
316.00 0.99501
316.50 1.01814
317.00 1.04156
317.50 1.06509
318.00 1.08929
318.50 1.11448
319.00 1.13937
319.50 1.16426
320.00 1.18914
320.50 1.21504
321.00 1.24080
321.50 1.26640
322.00 1.29200
322.50 1.31760
323.00 1.34373
323.50 1.36921
324.00 1.39440
324.50 1.41960
325.00 1.44480
325.50 1.46909
326.00 1.49254
326.50 1.51599
327.00 1.53774
327.50 1.55819
328.00 1.57863
328.50 1.59908
329.00 1.62177
329.50 1.64340
330.00 1.66309
330.50 1.68280
331.00 1.70252
331.50 1.72134
332.00 1.74003
332.50 1.75748
333.00 1.77395
333.50 1.79045
334.00 1.80713
334.50 1.82435
335.00 1.83891
335.50 1.85335
336.00 1.86783
336.50 1.88167
337.00 1.89266
337.50 1.90367
338.00 1.91471
338.50 1.92436
339.00 1.93290
339.50 1.94149
340.00 1.94750
340.50 1.95186
341.00 1.95626
341.50 1.96283
342.00 1.96970
342.50 1.97663
343.00 1.98034
343.50 1.98306
344.00 1.98584
344.50 1.98871
345.00 1.99324
345.50 1.99842
346.00 2.00104
346.50 2.00278
347.00 2.00317
347.50 2.00343
348.00 2.00380
348.50 2.00428
349.00 2.00514
349.50 2.00661
350.00 2.00728
350.50 2.00538
351.00 2.00361
351.50 2.00196
352.00 2.00087
352.50 2.00024
353.00 1.99958
353.50 1.99739
354.00 1.99534
354.50 1.99343
355.00 1.99180
355.50 1.99031
356.00 1.98895
356.50 1.98774
357.00 1.98666
357.50 1.98645
358.00 1.98581
358.50 1.98539
359.00 1.98511
359.50 1.98499
360.00 1.98502
