phi[deg] B[T]
0.00 1.13006
0.50 1.12958
1.00 1.12917
1.50 1.12884
2.00 1.12858
2.50 1.12840
3.00 1.12784
3.50 1.12741
4.00 1.12706
4.50 1.12678
5.00 1.12657
5.50 1.12581
6.00 1.12504
6.50 1.12431
7.00 1.12329
7.50 1.12235
8.00 1.12148
8.50 1.12065
9.00 1.11985
9.50 1.11912
10.00 1.11756
10.50 1.11567
11.00 1.11386
11.50 1.11211
12.00 1.11043
12.50 1.10882
13.00 1.10728
13.50 1.10595
14.00 1.10506
14.50 1.10306
15.00 1.10060
15.50 1.09819
16.00 1.09582
16.50 1.09351
17.00 1.09124
17.50 1.08902
18.00 1.08697
18.50 1.08500
19.00 1.08198
19.50 1.07902
20.00 1.07463
20.50 1.06957
21.00 1.06453
21.50 1.05952
22.00 1.05465
22.50 1.05033
23.00 1.04603
23.50 1.03935
24.00 1.03114
24.50 1.02294
25.00 1.01439
25.50 1.00582
26.00 0.99727
26.50 0.98873
27.00 0.97979
27.50 0.97082
28.00 0.96115
28.50 0.95002
29.00 0.93891
29.50 0.92782
30.00 0.91696
30.50 0.90614
31.00 0.89535
31.50 0.88409
32.00 0.87281
32.50 0.86157
33.00 0.85036
33.50 0.83843
34.00 0.82631
34.50 0.81551
35.00 0.80473
35.50 0.79396
36.00 0.78259
36.50 0.77018
37.00 0.75885
37.50 0.74827
38.00 0.73768
38.50 0.72659
39.00 0.71508
39.50 0.70358
40.00 0.69129
40.50 0.67939
41.00 0.66770
41.50 0.65600
42.00 0.64341
42.50 0.63106
43.00 0.61911
43.50 0.60704
44.00 0.59367
44.50 0.58027
45.00 0.56757
45.50 0.55447
46.00 0.54096
46.50 0.52738
47.00 0.51342
47.50 0.49936
48.00 0.48484
48.50 0.46939
49.00 0.45406
49.50 0.43865
50.00 0.42317
50.50 0.40689
51.00 0.39106
51.50 0.37512
52.00 0.35909
52.50 0.34185
53.00 0.32422
53.50 0.30683
54.00 0.28971
54.50 0.27250
55.00 0.25521
55.50 0.23783
56.00 0.22037
56.50 0.20154
57.00 0.18201
57.50 0.16434
58.00 0.14787
58.50 0.13680
59.00 0.12692
59.50 0.11704
60.00 0.10716
60.50 0.09728
61.00 0.08740
61.50 0.07752
62.00 0.06836
62.50 0.05966
63.00 0.05407
63.50 0.04979
64.00 0.04553
64.50 0.04140
65.00 0.03727
65.50 0.03315
66.00 0.02902
66.50 0.02613
67.00 0.02414
67.50 0.02215
68.00 0.02016
68.50 0.01816
69.00 0.01616
69.50 0.01422
70.00 0.01244
70.50 0.01147
71.00 0.01057
71.50 0.00969
72.00 0.00881
72.50 0.00793
73.00 0.00705
73.50 0.00617
74.00 0.00554
74.50 0.00507
75.00 0.00460
75.50 0.00413
76.00 0.00371
76.50 0.00333
77.00 0.00295
77.50 0.00270
78.00 0.00250
78.50 0.00230
79.00 0.00210
79.50 0.00191
80.00 0.00172
80.50 0.00153
81.00 0.00135
81.50 0.00125
82.00 0.00115
82.50 0.00106
83.00 0.00096
83.50 0.00088
84.00 0.00081
84.50 0.00073
85.00 0.00068
85.50 0.00065
86.00 0.00061
86.50 0.00058
87.00 0.00054
87.50 0.00051
88.00 0.00050
88.50 0.00048
89.00 0.00047
89.50 0.00045
90.00 0.00044
90.00 0.00044
90.50 0.00045
91.00 0.00047
91.50 0.00048
92.00 0.00050
92.50 0.00051
93.00 0.00054
93.50 0.00058
94.00 0.00061
94.50 0.00065
95.00 0.00068
95.50 0.00073
96.00 0.00081
96.50 0.00088
97.00 0.00096
97.50 0.00106
98.00 0.00115
98.50 0.00125
99.00 0.00135
99.50 0.00153
100.00 0.00172
100.50 0.00191
101.00 0.00210
101.50 0.00230
102.00 0.00250
102.50 0.00270
103.00 0.00295
103.50 0.00333
104.00 0.00371
104.50 0.00413
105.00 0.00460
105.50 0.00507
106.00 0.00554
106.50 0.00617
107.00 0.00705
107.50 0.00793
108.00 0.00881
108.50 0.00969
109.00 0.01057
109.50 0.01147
110.00 0.01244
110.50 0.01422
111.00 0.01616
111.50 0.01816
112.00 0.02016
112.50 0.02215
113.00 0.02414
113.50 0.02613
114.00 0.02902
114.50 0.03315
115.00 0.03727
115.50 0.04140
116.00 0.04553
116.50 0.04979
117.00 0.05407
117.50 0.05966
118.00 0.06836
118.50 0.07752
119.00 0.08740
119.50 0.09728
120.00 0.10716
120.50 0.11704
121.00 0.12692
121.50 0.13680
122.00 0.14787
122.50 0.16434
123.00 0.18201
123.50 0.20154
124.00 0.22037
124.50 0.23783
125.00 0.25521
125.50 0.27250
126.00 0.28971
126.50 0.30683
127.00 0.32422
127.50 0.34185
128.00 0.35909
128.50 0.37512
129.00 0.39106
129.50 0.40689
130.00 0.42317
130.50 0.43865
131.00 0.45406
131.50 0.46939
132.00 0.48484
132.50 0.49936
133.00 0.51342
133.50 0.52738
134.00 0.54096
134.50 0.55447
135.00 0.56757
135.50 0.58027
136.00 0.59367
136.50 0.60704
137.00 0.61911
137.50 0.63106
138.00 0.64341
138.50 0.65600
139.00 0.66770
139.50 0.67939
140.00 0.69129
140.50 0.70358
141.00 0.71508
141.50 0.72659
142.00 0.73768
142.50 0.74827
143.00 0.75885
143.50 0.77018
144.00 0.78259
144.50 0.79396
145.00 0.80473
145.50 0.81551
146.00 0.82631
146.50 0.83843
147.00 0.85036
147.50 0.86157
148.00 0.87281
148.50 0.88409
149.00 0.89535
149.50 0.90614
150.00 0.91696
150.50 0.92782
151.00 0.93891
151.50 0.95002
152.00 0.96115
152.50 0.97082
153.00 0.97979
153.50 0.98873
154.00 0.99727
154.50 1.00582
155.00 1.01439
155.50 1.02294
156.00 1.03114
156.50 1.03935
157.00 1.04603
157.50 1.05033
158.00 1.05465
158.50 1.05952
159.00 1.06453
159.50 1.06957
160.00 1.07463
160.50 1.07902
161.00 1.08198
161.50 1.08500
162.00 1.08697
162.50 1.08902
163.00 1.09124
163.50 1.09351
164.00 1.09582
164.50 1.09819
165.00 1.10060
165.50 1.10306
166.00 1.10506
166.50 1.10595
167.00 1.10728
167.50 1.10882
168.00 1.11043
168.50 1.11211
169.00 1.11386
169.50 1.11567
170.00 1.11756
170.50 1.11912
171.00 1.11985
171.50 1.12065
172.00 1.12148
172.50 1.12235
173.00 1.12329
173.50 1.12431
174.00 1.12504
174.50 1.12581
175.00 1.12657
175.50 1.12678
176.00 1.12706
176.50 1.12741
177.00 1.12784
177.50 1.12840
178.00 1.12858
178.50 1.12884
179.00 1.12917
179.50 1.12958
180.00 1.13006
180.00 1.13006
180.50 1.12958
181.00 1.12917
181.50 1.12884
182.00 1.12858
182.50 1.12840
183.00 1.12784
183.50 1.12741
184.00 1.12706
184.50 1.12678
185.00 1.12657
185.50 1.12581
186.00 1.12504
186.50 1.12431
187.00 1.12329
187.50 1.12235
188.00 1.12148
188.50 1.12065
189.00 1.11985
189.50 1.11912
190.00 1.11756
190.50 1.11567
191.00 1.11386
191.50 1.11211
192.00 1.11043
192.50 1.10882
193.00 1.10728
193.50 1.10595
194.00 1.10506
194.50 1.10306
195.00 1.10060
195.50 1.09819
196.00 1.09582
196.50 1.09351
197.00 1.09124
197.50 1.08902
198.00 1.08697
198.50 1.08500
199.00 1.08198
199.50 1.07902
200.00 1.07463
200.50 1.06957
201.00 1.06453
201.50 1.05952
202.00 1.05465
202.50 1.05033
203.00 1.04603
203.50 1.03935
204.00 1.03114
204.50 1.02294
205.00 1.01439
205.50 1.00582
206.00 0.99727
206.50 0.98873
207.00 0.97979
207.50 0.97082
208.00 0.96115
208.50 0.95002
209.00 0.93891
209.50 0.92782
210.00 0.91696
210.50 0.90614
211.00 0.89535
211.50 0.88409
212.00 0.87281
212.50 0.86157
213.00 0.85036
213.50 0.83843
214.00 0.82631
214.50 0.81551
215.00 0.80473
215.50 0.79396
216.00 0.78259
216.50 0.77018
217.00 0.75885
217.50 0.74827
218.00 0.73768
218.50 0.72659
219.00 0.71508
219.50 0.70358
220.00 0.69129
220.50 0.67939
221.00 0.66770
221.50 0.65600
222.00 0.64341
222.50 0.63106
223.00 0.61911
223.50 0.60704
224.00 0.59367
224.50 0.58027
225.00 0.56757
225.50 0.55447
226.00 0.54096
226.50 0.52738
227.00 0.51342
227.50 0.49936
228.00 0.48484
228.50 0.46939
229.00 0.45406
229.50 0.43865
230.00 0.42317
230.50 0.40689
231.00 0.39106
231.50 0.37512
232.00 0.35909
232.50 0.34185
233.00 0.32422
233.50 0.30683
234.00 0.28971
234.50 0.27250
235.00 0.25521
235.50 0.23783
236.00 0.22037
236.50 0.20154
237.00 0.18201
237.50 0.16434
238.00 0.14787
238.50 0.13680
239.00 0.12692
239.50 0.11704
240.00 0.10716
240.50 0.09728
241.00 0.08740
241.50 0.07752
242.00 0.06836
242.50 0.05966
243.00 0.05407
243.50 0.04979
244.00 0.04553
244.50 0.04140
245.00 0.03727
245.50 0.03315
246.00 0.02902
246.50 0.02613
247.00 0.02414
247.50 0.02215
248.00 0.02016
248.50 0.01816
249.00 0.01616
249.50 0.01422
250.00 0.01244
250.50 0.01147
251.00 0.01057
251.50 0.00969
252.00 0.00881
252.50 0.00793
253.00 0.00705
253.50 0.00617
254.00 0.00554
254.50 0.00507
255.00 0.00460
255.50 0.00413
256.00 0.00371
256.50 0.00333
257.00 0.00295
257.50 0.00270
258.00 0.00250
258.50 0.00230
259.00 0.00210
259.50 0.00191
260.00 0.00172
260.50 0.00153
261.00 0.00135
261.50 0.00125
262.00 0.00115
262.50 0.00106
263.00 0.00096
263.50 0.00088
264.00 0.00081
264.50 0.00073
265.00 0.00068
265.50 0.00065
266.00 0.00061
266.50 0.00058
267.00 0.00054
267.50 0.00051
268.00 0.00050
268.50 0.00048
269.00 0.00047
269.50 0.00045
270.00 0.00044
270.00 0.00044
270.50 0.00045
271.00 0.00047
271.50 0.00048
272.00 0.00050
272.50 0.00051
273.00 0.00054
273.50 0.00058
274.00 0.00061
274.50 0.00065
275.00 0.00068
275.50 0.00073
276.00 0.00081
276.50 0.00088
277.00 0.00096
277.50 0.00106
278.00 0.00115
278.50 0.00125
279.00 0.00135
279.50 0.00153
280.00 0.00172
280.50 0.00191
281.00 0.00210
281.50 0.00230
282.00 0.00250
282.50 0.00270
283.00 0.00295
283.50 0.00333
284.00 0.00371
284.50 0.00413
285.00 0.00460
285.50 0.00507
286.00 0.00554
286.50 0.00617
287.00 0.00705
287.50 0.00793
288.00 0.00881
288.50 0.00969
289.00 0.01057
289.50 0.01147
290.00 0.01244
290.50 0.01422
291.00 0.01616
291.50 0.01816
292.00 0.02016
292.50 0.02215
293.00 0.02414
293.50 0.02613
294.00 0.02902
294.50 0.03315
295.00 0.03727
295.50 0.04140
296.00 0.04553
296.50 0.04979
297.00 0.05407
297.50 0.05966
298.00 0.06836
298.50 0.07752
299.00 0.08740
299.50 0.09728
300.00 0.10716
300.50 0.11704
301.00 0.12692
301.50 0.13680
302.00 0.14787
302.50 0.16434
303.00 0.18201
303.50 0.20154
304.00 0.22037
304.50 0.23783
305.00 0.25521
305.50 0.27250
306.00 0.28971
306.50 0.30683
307.00 0.32422
307.50 0.34185
308.00 0.35909
308.50 0.37512
309.00 0.39106
309.50 0.40689
310.00 0.42317
310.50 0.43865
311.00 0.45406
311.50 0.46939
312.00 0.48484
312.50 0.49936
313.00 0.51342
313.50 0.52738
314.00 0.54096
314.50 0.55447
315.00 0.56757
315.50 0.58027
316.00 0.59367
316.50 0.60704
317.00 0.61911
317.50 0.63106
318.00 0.64341
318.50 0.65600
319.00 0.66770
319.50 0.67939
320.00 0.69129
320.50 0.70358
321.00 0.71508
321.50 0.72659
322.00 0.73768
322.50 0.74827
323.00 0.75885
323.50 0.77018
324.00 0.78259
324.50 0.79396
325.00 0.80473
325.50 0.81551
326.00 0.82631
326.50 0.83843
327.00 0.85036
327.50 0.86157
328.00 0.87281
328.50 0.88409
329.00 0.89535
329.50 0.90614
330.00 0.91696
330.50 0.92782
331.00 0.93891
331.50 0.95002
332.00 0.96115
332.50 0.97082
333.00 0.97979
333.50 0.98873
334.00 0.99727
334.50 1.00582
335.00 1.01439
335.50 1.02294
336.00 1.03114
336.50 1.03935
337.00 1.04603
337.50 1.05033
338.00 1.05465
338.50 1.05952
339.00 1.06453
339.50 1.06957
340.00 1.07463
340.50 1.07902
341.00 1.08198
341.50 1.08500
342.00 1.08697
342.50 1.08902
343.00 1.09124
343.50 1.09351
344.00 1.09582
344.50 1.09819
345.00 1.10060
345.50 1.10306
346.00 1.10506
346.50 1.10595
347.00 1.10728
347.50 1.10882
348.00 1.11043
348.50 1.11211
349.00 1.11386
349.50 1.11567
350.00 1.11756
350.50 1.11912
351.00 1.11985
351.50 1.12065
352.00 1.12148
352.50 1.12235
353.00 1.12329
353.50 1.12431
354.00 1.12504
354.50 1.12581
355.00 1.12657
355.50 1.12678
356.00 1.12706
356.50 1.12741
357.00 1.12784
357.50 1.12840
358.00 1.12858
358.50 1.12884
359.00 1.12917
359.50 1.12958
360.00 1.13006
